LabVIEW Measurement	
Writer_Version	2
Reader_Version	2
Separator	Tab
Decimal_Separator	.
Multi_Headings	No
X_Columns	One
Time_Pref	Relative
Operator	AlunosGDS-JT
Date	2019/08/27
Time	10:40:09.0947775840759277344
***End_of_Header***	
	
Notes	X values guaranteed valid only for Accel_Mes (PSD)				
Channels	4				
Samples	2054	2054	2054	2054	
Date	2019/08/27	2019/08/27	2019/08/27	2019/08/27	
Time	10:40:09.0947775840759277344	10:40:09.0947775840759277344	10:40:09.0947775840759277344	10:40:09.0947775840759277344	
Y_Unit_Label	g	Newtons			
X_Dimension	Time	Time	Time	Time	
X0	0.0000000000000000E+0	0.0000000000000000E+0	0.0000000000000000E+0	0.0000000000000000E+0	
Delta_X	0.402048	0.402048	1.000000	1.000000	
***End_of_Header***					
X_Value	Accel_Mes (PSD)	Force (PSD)	Untitled	Untitled 1	Comment
0.000000	6.979225E-6	0.008528	1.047203E-5	3.141593
0.402048	1.416381E-5	0.013905	0.000249	2.870389
0.804096	1.745903E-5	0.028443	0.000414	3.092235
1.206144	1.908731E-5	0.036064	0.000512	3.095933
1.608192	1.866068E-5	0.035942	0.000510	-3.096743
2.010240	1.766000E-5	0.036124	0.000502	-3.078869
2.412288	1.551904E-5	0.037170	0.000484	-3.016168
2.814336	1.360797E-5	0.040441	0.000478	-3.011420
3.216383	1.126536E-5	0.041614	0.000437	-2.963223
3.618431	8.981192E-6	0.044820	0.000404	-3.008968
4.020479	6.712870E-6	0.046581	0.000355	-2.956142
4.422527	4.632710E-6	0.046694	0.000300	-2.987713
4.824575	2.833310E-6	0.046646	0.000235	-2.918584
5.226623	1.414012E-6	0.046596	0.000167	-2.928302
5.628671	4.272330E-7	0.045770	9.899508E-5	-2.694136
6.030719	1.335435E-7	0.045130	3.084514E-5	-1.929118
6.432767	5.989815E-7	0.043285	8.333347E-5	-0.425783
6.834815	2.082374E-6	0.042846	0.000160	-0.113629
7.236863	4.630858E-6	0.042096	0.000253	-0.104411
7.638911	8.789385E-6	0.042476	0.000343	-0.027997
8.040959	1.392190E-5	0.040563	0.000442	-0.051329
8.443007	2.116335E-5	0.039798	0.000545	0.004316
8.845054	3.070962E-5	0.037485	0.000639	-0.008191
9.247102	4.262907E-5	0.037555	0.000758	0.013729
9.649150	5.679089E-5	0.035598	0.000850	0.013857
10.051198	7.534553E-5	0.035064	0.000971	0.017053
10.453246	9.590631E-5	0.034261	0.001083	0.026149
10.855294	0.000120	0.033061	0.001193	0.035410
11.257342	0.000151	0.032035	0.001321	0.033062
11.659390	0.000187	0.031326	0.001446	0.056192
12.061438	0.000225	0.029981	0.001560	0.049655
12.463486	0.000274	0.029059	0.001682	0.058811
12.865534	0.000328	0.027494	0.001815	0.064332
13.267582	0.000393	0.026742	0.001945	0.078649
13.669630	0.000465	0.025483	0.002070	0.092330
14.071678	0.000546	0.024381	0.002216	0.104831
14.473726	0.000641	0.023982	0.002335	0.105091
14.875773	0.000745	0.023444	0.002475	0.130306
15.277821	0.000859	0.021789	0.002548	0.128038
15.679869	0.000987	0.020863	0.002721	0.139976
16.081917	0.001139	0.020283	0.002842	0.141551
16.483965	0.001336	0.019379	0.002993	0.124253
16.886013	0.001620	0.017863	0.003212	0.133550
17.288061	0.002021	0.017390	0.003520	0.149224
17.690109	0.002495	0.016214	0.003785	0.183695
18.092157	0.002995	0.015583	0.004043	0.227726
18.494205	0.003652	0.014593	0.004300	0.259586
18.896253	0.004537	0.013966	0.004618	0.317522
19.298301	0.005629	0.013068	0.005034	0.367103
19.700349	0.007097	0.012666	0.005487	0.445416
20.102397	0.009003	0.012032	0.005942	0.532558
20.504445	0.011547	0.011020	0.006505	0.650323
20.906492	0.014808	0.010473	0.007010	0.799050
21.308540	0.018749	0.010207	0.007701	0.978462
21.710588	0.023048	0.009582	0.007925	1.215233
22.112636	0.026256	0.008804	0.007845	1.540750
22.514684	0.022575	0.008614	0.006209	1.966282
22.916732	0.008560	0.008573	0.003102	2.073493
23.318780	0.003557	0.007739	0.002669	1.416660
23.720828	0.004456	0.007460	0.003327	1.315248
24.122876	0.006233	0.007366	0.004055	1.277207
24.524924	0.008439	0.007401	0.004645	1.346609
24.926972	0.011472	0.006832	0.005300	1.409523
25.329020	0.015330	0.006803	0.006054	1.557291
25.731068	0.019868	0.006989	0.006862	1.728567
26.133116	0.024630	0.006903	0.007484	1.942518
26.535163	0.028601	0.006888	0.007898	2.169219
26.937211	0.029186	0.006925	0.007765	2.431660
27.339259	0.026101	0.007067	0.007110	2.697152
27.741307	0.018309	0.006909	0.005850	2.906246
28.143355	0.009736	0.007439	0.004555	2.961253
28.545403	0.006903	0.007441	0.004205	2.825336
28.947451	0.006665	0.008129	0.004390	2.810904
29.349499	0.006279	0.008162	0.004317	2.796996
29.751547	0.005940	0.009208	0.004443	2.805836
30.153595	0.005787	0.009442	0.004591	2.798574
30.555643	0.005782	0.009925	0.004683	2.793792
30.957691	0.005768	0.010382	0.004884	2.787724
31.359739	0.005830	0.011160	0.005072	2.800535
31.761787	0.005818	0.012139	0.005309	2.788044
32.163835	0.005775	0.012480	0.005448	2.800746
32.565882	0.005658	0.013214	0.005570	2.820778
32.967930	0.005599	0.013820	0.005645	2.812841
33.369978	0.005623	0.014377	0.005862	2.824924
33.772026	0.005746	0.015005	0.006058	2.794946
34.174074	0.005902	0.015451	0.006254	2.803904
34.576122	0.006058	0.017687	0.006719	2.808159
34.978170	0.006238	0.017601	0.006839	2.824705
35.380218	0.006411	0.019060	0.007352	2.834501
35.782266	0.006613	0.019047	0.007319	2.828806
36.184314	0.006820	0.020211	0.007806	2.845659
36.586362	0.007054	0.021257	0.008057	2.836440
36.988410	0.007303	0.022392	0.008438	2.856800
37.390458	0.007572	0.023517	0.008863	2.840044
37.792506	0.007866	0.023561	0.008960	2.867922
38.194554	0.008150	0.024971	0.009461	2.888034
38.596601	0.008405	0.025274	0.009725	2.904141
38.998649	0.008615	0.026737	0.010172	2.924313
39.400697	0.008803	0.026458	0.010245	2.931451
39.802745	0.008960	0.028794	0.010586	2.961002
40.204793	0.009119	0.029563	0.010792	2.964010
40.606841	0.009267	0.031093	0.011139	2.973370
41.008889	0.009396	0.030810	0.011212	2.987679
41.410937	0.009500	0.032522	0.011554	3.001967
41.812985	0.009594	0.033259	0.011678	3.008497
42.215033	0.009698	0.033836	0.011878	3.013717
42.617081	0.009809	0.034171	0.011973	3.014243
43.019129	0.009896	0.033953	0.011869	3.055820
43.421177	0.009917	0.035492	0.012025	3.069590
43.823225	0.009889	0.037833	0.012467	3.101140
44.225272	0.009898	0.037164	0.012365	3.061682
44.627320	0.009942	0.037286	0.012412	3.058432
45.029368	0.009976	0.038036	0.012236	3.082046
45.431416	0.010004	0.037988	0.012104	3.094114
45.833464	0.009959	0.041228	0.012553	3.110503
46.235512	0.009873	0.039914	0.012380	3.116415
46.637560	0.009750	0.041450	0.012332	3.073996
47.039608	0.009630	0.041718	0.012391	3.138442
47.441656	0.009506	0.042470	0.012483	3.117084
47.843704	0.009409	0.041612	0.012150	3.103732
48.245752	0.009292	0.042123	0.012096	3.111970
48.647800	0.009112	0.045066	0.012543	3.134641
49.049848	0.009139	0.042744	0.012072	3.100631
49.451896	0.008980	0.043309	0.011983	3.122806
49.853944	0.008864	0.043087	0.012040	3.117691
50.255991	0.008759	0.045614	0.012233	3.106465
50.658039	0.008689	0.043371	0.011906	3.110021
51.060087	0.008623	0.043730	0.011855	3.114975
51.462135	0.008557	0.043219	0.011849	3.120491
51.864183	0.008469	0.045625	0.011901	3.119955
52.266231	0.008370	0.044185	0.011633	3.118025
52.668279	0.008253	0.043775	0.011529	3.130771
53.070327	0.008114	0.042801	0.011465	3.126929
53.472375	0.007947	0.043608	0.011225	3.121694
53.874423	0.007790	0.043054	0.011140	3.132360
54.276471	0.007637	0.043676	0.010960	3.125323
54.678519	0.007497	0.042567	0.010774	3.128841
55.080567	0.007354	0.042799	0.010572	3.131953
55.482615	0.007224	0.040369	0.010418	3.128191
55.884662	0.007083	0.041185	0.010273	3.127573
56.286710	0.006945	0.040470	0.010059	3.130501
56.688758	0.006795	0.041614	0.009848	3.128125
57.090806	0.006650	0.038881	0.009637	3.132841
57.492854	0.006497	0.039826	0.009429	3.131997
57.894902	0.006337	0.039617	0.009281	-3.141397
58.296950	0.006186	0.036129	0.009055	3.130042
58.698998	0.006025	0.036511	0.008757	3.132612
59.101046	0.005865	0.035710	0.008550	3.139438
59.503094	0.005705	0.034809	0.008274	3.137685
59.905142	0.005542	0.035358	0.008107	3.138591
60.307190	0.005378	0.034271	0.007843	-3.140381
60.709238	0.005215	0.034513	0.007612	3.139710
61.111286	0.005055	0.033201	0.007355	3.135783
61.513334	0.004891	0.032991	0.007066	3.138505
61.915381	0.004731	0.033304	0.006870	-3.129691
62.317429	0.004575	0.030128	0.006663	-3.141068
62.719477	0.004413	0.030881	0.006421	3.139768
63.121525	0.004261	0.028410	0.006127	-3.141274
63.523573	0.004105	0.027413	0.005921	-3.139129
63.925621	0.003951	0.027273	0.005680	-3.137560
64.327669	0.003801	0.027015	0.005443	3.140769
64.729717	0.003649	0.025977	0.005242	3.141438
65.131765	0.003505	0.024192	0.004971	3.139407
65.533813	0.003362	0.023244	0.004799	3.140655
65.935861	0.003220	0.022750	0.004571	3.141552
66.337909	0.003085	0.022199	0.004346	3.128306
66.739957	0.002953	0.021365	0.004134	3.132774
67.142005	0.002827	0.020702	0.003932	3.137721
67.544053	0.002710	0.019043	0.003720	3.133712
67.946100	0.002590	0.018824	0.003556	3.137225
68.348148	0.002480	0.017648	0.003403	3.136509
68.750196	0.002370	0.017518	0.003184	3.121263
69.152244	0.002264	0.016702	0.003012	-3.140086
69.554292	0.002158	0.015307	0.002837	-3.129421
69.956340	0.002053	0.014801	0.002729	-3.140915
70.358388	0.001950	0.014418	0.002561	3.135297
70.760436	0.001850	0.013908	0.002382	-3.141567
71.162484	0.001760	0.013078	0.002258	-3.101365
71.564532	0.001672	0.012862	0.002159	3.125961
71.966580	0.001593	0.011747	0.002006	3.138954
72.368628	0.001516	0.011785	0.001921	-3.112513
72.770676	0.001446	0.010850	0.001833	-3.131513
73.172724	0.001381	0.010146	0.001673	-3.140961
73.574771	0.001319	0.010208	0.001689	-3.113594
73.976819	0.001263	0.009744	0.001573	-3.128811
74.378867	0.001212	0.009124	0.001521	3.130742
74.780915	0.001165	0.008962	0.001455	-3.134658
75.182963	0.001122	0.008772	0.001373	-3.111641
75.585011	0.001087	0.008411	0.001408	-3.096952
75.987059	0.001053	0.008597	0.001410	-3.112097
76.389107	0.001026	0.007813	0.001342	3.128132
76.791155	0.001006	0.007961	0.001315	-3.133296
77.193203	0.000988	0.007954	0.001294	-3.111361
77.595251	0.000975	0.007983	0.001341	-3.119730
77.997299	0.000969	0.007416	0.001348	-3.125641
78.399347	0.000965	0.007728	0.001382	-3.136644
78.801395	0.000967	0.007731	0.001404	3.135479
79.203443	0.000974	0.008016	0.001455	3.140341
79.605490	0.000985	0.008159	0.001515	3.119754
80.007538	0.001002	0.008126	0.001561	3.124582
80.409586	0.001022	0.008268	0.001625	3.135947
80.811634	0.001047	0.008535	0.001722	3.135484
81.213682	0.001075	0.008448	0.001770	3.129338
81.615730	0.001108	0.008714	0.001881	3.119489
82.017778	0.001143	0.009090	0.001930	3.122878
82.419826	0.001183	0.009388	0.002069	3.135739
82.821874	0.001225	0.010258	0.002177	3.113838
83.223922	0.001273	0.010524	0.002288	3.119425
83.625970	0.001323	0.011053	0.002407	3.123369
84.028018	0.001377	0.011243	0.002514	3.135170
84.430066	0.001431	0.012104	0.002694	3.132573
84.832114	0.001490	0.012144	0.002765	3.121261
85.234162	0.001548	0.012917	0.002911	3.139607
85.636209	0.001609	0.013301	0.003013	3.130194
86.038257	0.001672	0.013628	0.003194	3.137187
86.440305	0.001733	0.014562	0.003360	3.136626
86.842353	0.001799	0.015132	0.003496	3.132111
87.244401	0.001864	0.015995	0.003642	3.137344
87.646449	0.001933	0.015772	0.003740	-3.141366
88.048497	0.002001	0.016504	0.003908	3.135939
88.450545	0.002069	0.017464	0.004081	3.127435
88.852593	0.002137	0.018428	0.004218	3.125048
89.254641	0.002208	0.019351	0.004393	3.126247
89.656689	0.002279	0.019995	0.004538	3.127505
90.058737	0.002348	0.019825	0.004645	3.131888
90.460785	0.002415	0.020986	0.004793	3.129963
90.862833	0.002484	0.021245	0.004927	3.126645
91.264880	0.002549	0.022044	0.005050	3.128267
91.666928	0.002613	0.022347	0.005171	3.136960
92.068976	0.002676	0.023125	0.005299	3.136852
92.471024	0.002739	0.023435	0.005442	3.137011
92.873072	0.002799	0.024244	0.005527	3.132558
93.275120	0.002856	0.024826	0.005688	-3.140409
93.677168	0.002915	0.025074	0.005780	-3.140893
94.079216	0.002969	0.025930	0.005903	3.136308
94.481264	0.003021	0.026688	0.005975	3.139785
94.883312	0.003073	0.027044	0.006074	-3.135086
95.285360	0.003124	0.027340	0.006210	-3.135141
95.687408	0.003172	0.027986	0.006313	-3.137982
96.089456	0.003216	0.028498	0.006386	-3.139707
96.491504	0.003259	0.028846	0.006438	3.139990
96.893552	0.003300	0.029093	0.006529	-3.132397
97.295599	0.003335	0.029780	0.006611	-3.134660
97.697647	0.003369	0.030308	0.006687	-3.137798
98.099695	0.003400	0.030448	0.006683	3.138902
98.501743	0.003426	0.030912	0.006737	-3.132521
98.903791	0.003451	0.031295	0.006810	-3.133509
99.305839	0.003473	0.031434	0.006824	-3.140093
99.707887	0.003491	0.031581	0.006848	-3.141048
100.109935	0.003505	0.031914	0.006804	-3.140452
100.511983	0.003519	0.031844	0.006836	-3.132923
100.914031	0.003528	0.032098	0.006851	-3.136937
101.316079	0.003530	0.032230	0.006870	-3.136772
101.718127	0.003530	0.032745	0.006810	-3.140498
102.120175	0.003528	0.032799	0.006828	-3.132964
102.522223	0.003525	0.032647	0.006782	-3.138024
102.924271	0.003517	0.032769	0.006752	-3.135271
103.326318	0.003508	0.032476	0.006710	-3.135490
103.728366	0.003494	0.032806	0.006685	-3.129906
104.130414	0.003476	0.032973	0.006631	-3.138520
104.532462	0.003459	0.032515	0.006561	-3.134982
104.934510	0.003439	0.031558	0.006496	-3.136145
105.336558	0.003413	0.032078	0.006432	-3.136955
105.738606	0.003387	0.032145	0.006353	-3.138346
106.140654	0.003359	0.031696	0.006291	-3.138651
106.542702	0.003327	0.031290	0.006194	-3.137492
106.944750	0.003292	0.031366	0.006083	-3.139007
107.346798	0.003256	0.031080	0.006006	-3.137246
107.748846	0.003219	0.030565	0.005887	-3.139227
108.150894	0.003176	0.030234	0.005793	-3.140028
108.552942	0.003131	0.030090	0.005692	-3.139438
108.954989	0.003085	0.029243	0.005567	-3.137163
109.357037	0.003036	0.028811	0.005426	-3.138820
109.759085	0.002983	0.028948	0.005335	-3.138860
110.161133	0.002933	0.028194	0.005207	-3.139228
110.563181	0.002878	0.028364	0.005079	-3.135950
110.965229	0.002824	0.027488	0.004942	-3.137293
111.367277	0.002770	0.026961	0.004820	-3.141009
111.769325	0.002714	0.026567	0.004697	3.141488
112.171373	0.002659	0.025973	0.004567	-3.138087
112.573421	0.002599	0.025589	0.004453	-3.138264
112.975469	0.002540	0.025356	0.004312	-3.139641
113.377517	0.002479	0.024271	0.004148	3.141463
113.779565	0.002417	0.023799	0.004028	-3.135745
114.181613	0.002355	0.023494	0.003929	-3.138132
114.583661	0.002293	0.023008	0.003763	-3.136437
114.985708	0.002231	0.022238	0.003626	3.136737
115.387756	0.002168	0.022088	0.003485	-3.140921
115.789804	0.002107	0.020915	0.003362	-3.132547
116.191852	0.002047	0.020378	0.003213	-3.141438
116.593900	0.001984	0.020173	0.003117	3.137051
116.995948	0.001925	0.019248	0.002969	3.138372
117.397996	0.001864	0.018542	0.002839	3.138837
117.800044	0.001804	0.017977	0.002714	-3.141074
118.202092	0.001745	0.017573	0.002596	-3.140484
118.604140	0.001688	0.017049	0.002477	-3.131357
119.006188	0.001632	0.016552	0.002371	3.139501
119.408236	0.001577	0.016013	0.002249	-3.139069
119.810284	0.001523	0.015470	0.002162	3.139961
120.212332	0.001471	0.014893	0.002033	-3.132208
120.614379	0.001418	0.014438	0.001941	-3.129314
121.016427	0.001368	0.014048	0.001843	-3.119109
121.418475	0.001319	0.013686	0.001786	-3.140723
121.820523	0.001273	0.013253	0.001666	3.133629
122.222571	0.001228	0.012685	0.001581	-3.125228
122.624619	0.001185	0.012189	0.001506	-3.118059
123.026667	0.001143	0.011832	0.001433	-3.124830
123.428715	0.001102	0.011559	0.001370	-3.120370
123.830763	0.001065	0.011114	0.001306	-3.119296
124.232811	0.001028	0.010819	0.001254	-3.123325
124.634859	0.000992	0.010547	0.001185	-3.125215
125.036907	0.000961	0.010181	0.001151	-3.111574
125.438955	0.000930	0.010045	0.001113	-3.123679
125.841003	0.000902	0.009601	0.001075	-3.123421
126.243051	0.000876	0.009269	0.001049	-3.118967
126.645098	0.000851	0.009211	0.001026	-3.118297
127.047146	0.000830	0.009027	0.001002	-3.124479
127.449194	0.000810	0.008728	0.000990	-3.130360
127.851242	0.000793	0.008622	0.000976	-3.134442
128.253290	0.000777	0.008425	0.000980	-3.132636
128.655338	0.000764	0.008194	0.000973	3.138819
129.057386	0.000752	0.008130	0.000975	-3.138134
129.459434	0.000743	0.008424	0.000996	3.136461
129.861482	0.000736	0.008239	0.001012	3.136893
130.263530	0.000730	0.008308	0.001028	3.127869
130.665578	0.000728	0.007946	0.001037	-3.137656
131.067626	0.000726	0.008111	0.001086	3.129378
131.469674	0.000727	0.008189	0.001114	3.131217
131.871722	0.000730	0.008224	0.001157	3.131286
132.273770	0.000734	0.008122	0.001190	3.124556
132.675817	0.000741	0.008293	0.001241	3.132585
133.077865	0.000748	0.008685	0.001308	3.122566
133.479913	0.000758	0.008634	0.001343	3.127412
133.881961	0.000768	0.008809	0.001411	3.131358
134.284009	0.000781	0.008740	0.001456	3.120991
134.686057	0.000794	0.009029	0.001522	3.125575
135.088105	0.000808	0.009349	0.001595	3.121982
135.490153	0.000824	0.009543	0.001669	3.122027
135.892201	0.000842	0.009580	0.001723	3.126195
136.294249	0.000860	0.009893	0.001796	3.125434
136.696297	0.000878	0.010299	0.001874	3.125613
137.098345	0.000900	0.010161	0.001933	3.119449
137.500393	0.000920	0.010493	0.002011	3.126851
137.902441	0.000943	0.010942	0.002100	3.120472
138.304488	0.000965	0.011212	0.002167	3.126392
138.706536	0.000988	0.011456	0.002255	3.118307
139.108584	0.001011	0.011650	0.002312	3.125225
139.510632	0.001034	0.012000	0.002383	3.123798
139.912680	0.001057	0.012384	0.002449	3.128375
140.314728	0.001080	0.012534	0.002523	3.135035
140.716776	0.001103	0.012662	0.002600	3.124516
141.118824	0.001124	0.013311	0.002678	3.134797
141.520872	0.001146	0.013740	0.002752	3.131333
141.922920	0.001168	0.013687	0.002795	3.134463
142.324968	0.001188	0.014122	0.002874	3.139654
142.727016	0.001210	0.014669	0.002980	3.137876
143.129064	0.001230	0.014778	0.003002	3.124628
143.531112	0.001249	0.015072	0.003061	3.139918
143.933160	0.001267	0.015648	0.003132	3.137186
144.335207	0.001287	0.015478	0.003183	3.140000
144.737255	0.001303	0.016158	0.003260	3.132560
145.139303	0.001319	0.016360	0.003263	3.137015
145.541351	0.001336	0.016574	0.003327	3.139882
145.943399	0.001352	0.016548	0.003370	3.132702
146.345447	0.001365	0.017197	0.003400	3.126906
146.747495	0.001379	0.017524	0.003451	3.128506
147.149543	0.001392	0.017599	0.003467	-3.139658
147.551591	0.001404	0.017990	0.003516	3.129308
147.953639	0.001416	0.017763	0.003509	3.131739
148.355687	0.001426	0.018061	0.003547	3.134384
148.757735	0.001435	0.018324	0.003573	3.138428
149.159783	0.001444	0.018179	0.003568	3.140834
149.561831	0.001452	0.018506	0.003608	-3.132416
149.963879	0.001458	0.018718	0.003600	3.139900
150.365926	0.001463	0.019087	0.003635	-3.136180
150.767974	0.001466	0.019712	0.003664	-3.135202
151.170022	0.001470	0.019570	0.003653	-3.135500
151.572070	0.001471	0.019714	0.003649	-3.125263
151.974118	0.001471	0.019883	0.003641	-3.131320
152.376166	0.001471	0.019892	0.003627	3.140401
152.778214	0.001469	0.019974	0.003637	3.133099
153.180262	0.001465	0.020222	0.003610	-3.140777
153.582310	0.001459	0.020383	0.003631	-3.131507
153.984358	0.001450	0.020235	0.003581	3.139319
154.386406	0.001440	0.019459	0.003481	-3.134485
154.788454	0.001428	0.019898	0.003467	3.134141
155.190502	0.001418	0.019852	0.003406	-3.133999
155.592550	0.001404	0.020628	0.003469	3.138442
155.994597	0.001392	0.019957	0.003347	-3.139459
156.396645	0.001380	0.019975	0.003355	-3.133667
156.798693	0.001366	0.019727	0.003259	3.135735
157.200741	0.001349	0.019690	0.003220	-3.120323
157.602789	0.001332	0.019901	0.003224	3.133944
158.004837	0.001316	0.019275	0.003086	3.137852
158.406885	0.001298	0.019002	0.003053	-3.139947
158.808933	0.001280	0.018444	0.002973	-3.132631
159.210981	0.001259	0.018812	0.002975	3.137591
159.613029	0.001237	0.018773	0.002881	3.135867
160.015077	0.001213	0.018785	0.002826	-3.136286
160.417125	0.001188	0.018328	0.002726	-3.128032
160.819173	0.001163	0.018748	0.002695	-3.135157
161.221221	0.001137	0.018109	0.002592	-3.132783
161.623269	0.001110	0.017879	0.002542	-3.133976
162.025316	0.001083	0.017686	0.002458	-3.139776
162.427364	0.001056	0.017804	0.002425	3.140491
162.829412	0.001029	0.017634	0.002334	3.107363
163.231460	0.001001	0.017023	0.002224	3.125082
163.633508	0.000974	0.016095	0.002105	-3.137622
164.035556	0.000944	0.017039	0.002150	-3.103283
164.437604	0.000918	0.016551	0.002087	-3.120929
164.839652	0.000889	0.016393	0.001989	3.126321
165.241700	0.000862	0.016205	0.001905	3.136327
165.643748	0.000836	0.014684	0.001758	-3.126525
166.045796	0.000807	0.015040	0.001745	-3.132629
166.447844	0.000779	0.015136	0.001716	-3.101016
166.849892	0.000753	0.014163	0.001553	3.110669
167.251940	0.000725	0.014226	0.001532	-3.114021
167.653987	0.000697	0.014649	0.001520	3.140567
168.056035	0.000673	0.013551	0.001392	3.132048
168.458083	0.000647	0.013032	0.001284	-3.124898
168.860131	0.000621	0.013572	0.001341	3.141241
169.262179	0.000597	0.013177	0.001226	3.103207
169.664227	0.000575	0.012564	0.001158	3.135170
170.066275	0.000553	0.012077	0.001107	-3.125336
170.468323	0.000532	0.011877	0.001074	3.111386
170.870371	0.000510	0.012014	0.001020	3.128646
171.272419	0.000488	0.011601	0.000947	3.125166
171.674467	0.000464	0.011010	0.000910	-3.116465
172.076515	0.000440	0.011203	0.000876	3.122051
172.478563	0.000417	0.010535	0.000807	3.119871
172.880611	0.000393	0.010722	0.000774	-3.139762
173.282659	0.000372	0.010236	0.000733	3.122850
173.684706	0.000352	0.010075	0.000679	3.104178
174.086754	0.000334	0.009712	0.000653	3.096676
174.488802	0.000318	0.009644	0.000633	3.086960
174.890850	0.000304	0.009220	0.000604	3.040148
175.292898	0.000292	0.009139	0.000582	3.060478
175.694946	0.000281	0.009084	0.000565	3.059127
176.096994	0.000271	0.008767	0.000562	3.043821
176.499042	0.000260	0.008505	0.000542	3.058739
176.901090	0.000248	0.007980	0.000520	3.071214
177.303138	0.000234	0.008227	0.000502	3.097412
177.705186	0.000219	0.007627	0.000477	3.115692
178.107234	0.000204	0.008361	0.000460	3.129616
178.509282	0.000189	0.008025	0.000439	3.127860
178.911330	0.000175	0.007526	0.000415	-3.123807
179.313378	0.000160	0.007623	0.000400	-3.122527
179.715425	0.000146	0.007434	0.000384	-3.116860
180.117473	0.000133	0.007228	0.000366	-3.098374
180.519521	0.000121	0.007027	0.000347	-3.107784
180.921569	0.000109	0.006951	0.000339	-3.104694
181.323617	9.723783E-5	0.006937	0.000317	-3.116052
181.725665	8.659739E-5	0.006745	0.000305	-3.096138
182.127713	7.623686E-5	0.006533	0.000282	-3.085855
182.529761	6.623365E-5	0.006801	0.000273	-3.081520
182.931809	5.719565E-5	0.006457	0.000255	-3.092638
183.333857	4.855523E-5	0.006860	0.000235	-3.097868
183.735905	4.092135E-5	0.006625	0.000213	-3.089720
184.137953	3.428971E-5	0.006653	0.000195	-3.099471
184.540001	2.877499E-5	0.006388	0.000169	-3.122019
184.942049	2.440679E-5	0.006621	0.000142	3.130675
185.344096	2.173875E-5	0.006550	0.000111	3.069059
185.746144	2.093388E-5	0.006722	7.559034E-5	2.994920
186.148192	2.253024E-5	0.006652	3.798159E-5	2.651264
186.550240	2.712106E-5	0.006643	2.733817E-5	1.063732
186.952288	3.550727E-5	0.006645	7.630577E-5	0.446949
187.354336	4.858656E-5	0.006825	0.000139	0.310437
187.756384	6.792676E-5	0.006756	0.000211	0.275277
188.158432	9.535833E-5	0.007110	0.000303	0.251222
188.560480	0.000132	0.006916	0.000394	0.238299
188.962528	0.000183	0.006996	0.000506	0.256153
189.364576	0.000250	0.007003	0.000633	0.268478
189.766624	0.000339	0.007303	0.000789	0.273612
190.168672	0.000454	0.007357	0.000954	0.282959
190.570720	0.000604	0.007140	0.001114	0.310982
190.972768	0.000799	0.007487	0.001367	0.339823
191.374815	0.001053	0.007562	0.001621	0.334066
191.776863	0.001382	0.007585	0.001885	0.374667
192.178911	0.001810	0.007771	0.002227	0.421879
192.580959	0.002364	0.007844	0.002611	0.446084
192.983007	0.003079	0.007977	0.003046	0.476937
193.385055	0.004001	0.008128	0.003594	0.533712
193.787103	0.005205	0.008041	0.004094	0.578767
194.189151	0.006796	0.008460	0.004811	0.622965
194.591199	0.008926	0.008419	0.005569	0.695696
194.993247	0.011817	0.008435	0.006519	0.754055
195.395295	0.015732	0.008674	0.007700	0.844565
195.797343	0.020986	0.008670	0.009064	0.936773
196.199391	0.027972	0.008809	0.010492	1.040624
196.601439	0.037049	0.008817	0.012170	1.187611
197.003487	0.048417	0.008961	0.014043	1.355055
197.405534	0.061535	0.009136	0.016027	1.554823
197.807582	0.074270	0.009366	0.017667	1.779412
198.209630	0.081726	0.009244	0.018409	2.065968
198.611678	0.077473	0.009585	0.018169	2.346544
199.013726	0.060925	0.009380	0.015664	2.592611
199.415774	0.042141	0.009750	0.013011	2.746197
199.817822	0.029732	0.009898	0.010831	2.798677
200.219870	0.023388	0.009674	0.009583	2.818742
200.621918	0.019842	0.009726	0.008866	2.829524
201.023966	0.017382	0.009949	0.008392	2.841478
201.426014	0.015472	0.010144	0.007940	2.858421
201.828062	0.013904	0.010003	0.007541	2.871414
202.230110	0.012599	0.009991	0.007045	2.899264
202.632158	0.011522	0.010075	0.006845	2.910507
203.034205	0.010628	0.010217	0.006549	2.914620
203.436253	0.009892	0.010313	0.006323	2.927639
203.838301	0.009283	0.010197	0.006036	2.925302
204.240349	0.008777	0.010385	0.005932	2.938840
204.642397	0.008327	0.010355	0.005784	2.937138
205.044445	0.007903	0.010407	0.005552	2.956507
205.446493	0.007509	0.010579	0.005442	2.944779
205.848541	0.007161	0.010464	0.005217	2.969127
206.250589	0.006854	0.010690	0.005158	2.973695
206.652637	0.006576	0.010559	0.004974	2.968050
207.054685	0.006328	0.010328	0.004832	2.968508
207.456733	0.006094	0.010556	0.004671	2.969093
207.858781	0.005880	0.010421	0.004613	2.979545
208.260829	0.005679	0.010403	0.004520	2.976906
208.662877	0.005491	0.010484	0.004362	2.976029
209.064924	0.005314	0.010438	0.004246	2.977556
209.466972	0.005149	0.010358	0.004120	2.976968
209.869020	0.004997	0.010505	0.004022	2.976303
210.271068	0.004857	0.010165	0.003912	2.984359
210.673116	0.004721	0.010328	0.003789	2.977093
211.075164	0.004592	0.009985	0.003687	2.982054
211.477212	0.004468	0.010035	0.003554	2.989411
211.879260	0.004351	0.010046	0.003487	2.997944
212.281308	0.004244	0.009902	0.003432	2.991500
212.683356	0.004140	0.009802	0.003324	2.985173
213.085404	0.004040	0.009777	0.003217	2.993281
213.487452	0.003946	0.009688	0.003151	2.989403
213.889500	0.003857	0.009777	0.003047	2.999520
214.291548	0.003770	0.009627	0.002988	2.997767
214.693596	0.003689	0.009486	0.002933	2.987848
215.095643	0.003612	0.009272	0.002827	2.989692
215.497691	0.003538	0.009338	0.002761	2.990754
215.899739	0.003468	0.009321	0.002695	2.990614
216.301787	0.003403	0.009160	0.002650	2.987658
216.703835	0.003343	0.008870	0.002533	2.980250
217.105883	0.003285	0.008903	0.002470	2.998373
217.507931	0.003229	0.008820	0.002444	2.998443
217.909979	0.003177	0.008667	0.002351	2.992228
218.312027	0.003125	0.008587	0.002277	3.004713
218.714075	0.003074	0.008271	0.002228	3.007797
219.116123	0.003021	0.008170	0.002171	3.004343
219.518171	0.002960	0.008301	0.002093	3.030888
219.920219	0.002894	0.007967	0.002025	3.049496
220.322267	0.002819	0.008067	0.001943	3.048132
220.724314	0.002739	0.007694	0.001879	3.057245
221.126362	0.002658	0.007745	0.001783	3.056675
221.528410	0.002580	0.007415	0.001746	3.078991
221.930458	0.002511	0.007319	0.001661	3.066565
222.332506	0.002448	0.007141	0.001638	3.088286
222.734554	0.002387	0.007107	0.001559	3.068432
223.136602	0.002328	0.007213	0.001498	3.093142
223.538650	0.002270	0.006903	0.001458	3.090766
223.940698	0.002210	0.006705	0.001412	3.107671
224.342746	0.002146	0.006702	0.001361	3.128260
224.744794	0.002080	0.006682	0.001286	3.123237
225.146842	0.002013	0.006366	0.001250	3.134034
225.548890	0.001946	0.006226	0.001208	3.140176
225.950938	0.001881	0.006062	0.001156	-3.131695
226.352986	0.001818	0.006014	0.001117	-3.136163
226.755033	0.001761	0.005773	0.001064	-3.120314
227.157081	0.001708	0.005692	0.001062	-3.124186
227.559129	0.001657	0.005610	0.000998	-3.119091
227.961177	0.001607	0.005519	0.000972	-3.116418
228.363225	0.001560	0.005562	0.000961	-3.107205
228.765273	0.001515	0.005300	0.000931	-3.104746
229.167321	0.001471	0.005325	0.000904	-3.103434
229.569369	0.001429	0.005097	0.000886	-3.102120
229.971417	0.001388	0.005066	0.000865	-3.088757
230.373465	0.001350	0.004809	0.000845	-3.104577
230.775513	0.001312	0.004753	0.000823	-3.103630
231.177561	0.001276	0.004788	0.000814	-3.090225
231.579609	0.001241	0.004692	0.000788	-3.101717
231.981657	0.001209	0.004630	0.000794	-3.094181
232.383704	0.001177	0.004625	0.000779	-3.086750
232.785752	0.001147	0.004496	0.000787	-3.107186
233.187800	0.001118	0.004462	0.000764	-3.078393
233.589848	0.001092	0.004301	0.000774	-3.101000
233.991896	0.001066	0.004377	0.000769	-3.098614
234.393944	0.001040	0.004468	0.000763	-3.087211
234.795992	0.001017	0.004276	0.000761	-3.098879
235.198040	0.000995	0.004307	0.000770	-3.097340
235.600088	0.000973	0.004287	0.000779	-3.088762
236.002136	0.000953	0.004217	0.000782	-3.087411
236.404184	0.000934	0.004136	0.000788	-3.093646
236.806232	0.000916	0.004058	0.000779	-3.115255
237.208280	0.000899	0.003990	0.000780	-3.081554
237.610328	0.000884	0.004153	0.000814	-3.091565
238.012376	0.000869	0.003956	0.000818	-3.126252
238.414423	0.000855	0.003942	0.000819	-3.102228
238.816471	0.000842	0.003936	0.000843	-3.101352
239.218519	0.000830	0.003934	0.000845	-3.111917
239.620567	0.000819	0.003956	0.000866	-3.119336
240.022615	0.000809	0.003872	0.000862	-3.135341
240.424663	0.000800	0.004120	0.000896	-3.135983
240.826711	0.000793	0.004028	0.000903	-3.129506
241.228759	0.000787	0.003976	0.000910	-3.131954
241.630807	0.000781	0.003983	0.000942	3.139043
242.032855	0.000776	0.003979	0.000960	3.123759
242.434903	0.000773	0.003937	0.000963	3.130920
242.836951	0.000769	0.004144	0.000994	3.116198
243.238999	0.000768	0.004019	0.000979	3.123287
243.641047	0.000765	0.004153	0.001027	-3.139051
244.043095	0.000764	0.004102	0.001039	3.121960
244.445142	0.000763	0.004104	0.001045	3.111825
244.847190	0.000764	0.004034	0.001054	3.100312
245.249238	0.000764	0.004214	0.001079	3.118195
245.651286	0.000766	0.004126	0.001082	3.117358
246.053334	0.000769	0.004172	0.001118	3.114775
246.455382	0.000772	0.004266	0.001136	3.102716
246.857430	0.000775	0.004283	0.001140	3.102580
247.259478	0.000780	0.004238	0.001155	3.112053
247.661526	0.000784	0.004333	0.001177	3.100826
248.063574	0.000789	0.004266	0.001184	3.089166
248.465622	0.000792	0.004485	0.001200	3.099054
248.867670	0.000798	0.004485	0.001225	3.097804
249.269718	0.000802	0.004419	0.001234	3.091311
249.671766	0.000808	0.004458	0.001241	3.089591
250.073813	0.000815	0.004464	0.001256	3.076714
250.475861	0.000820	0.004654	0.001259	3.089978
250.877909	0.000827	0.004592	0.001280	3.084006
251.279957	0.000833	0.004558	0.001279	3.074833
251.682005	0.000840	0.004676	0.001295	3.080005
252.084053	0.000847	0.004569	0.001294	3.085993
252.486101	0.000853	0.004577	0.001295	3.084472
252.888149	0.000859	0.004628	0.001314	3.072839
253.290197	0.000865	0.004725	0.001314	3.079048
253.692245	0.000871	0.004723	0.001307	3.070343
254.094293	0.000876	0.004755	0.001310	3.074471
254.496341	0.000882	0.004748	0.001311	3.079074
254.898389	0.000887	0.004877	0.001332	3.085681
255.300437	0.000892	0.004823	0.001334	3.073531
255.702485	0.000897	0.004900	0.001316	3.070306
256.104532	0.000902	0.004843	0.001324	3.084030
256.506580	0.000906	0.004910	0.001311	3.072786
256.908628	0.000910	0.004836	0.001292	3.077212
257.310676	0.000913	0.005025	0.001306	3.079340
257.712724	0.000916	0.004851	0.001304	3.077744
258.114772	0.000919	0.004905	0.001290	3.078526
258.516820	0.000921	0.004914	0.001283	3.068358
258.918868	0.000923	0.004983	0.001262	3.074746
259.320916	0.000925	0.004860	0.001256	3.089710
259.722964	0.000926	0.004774	0.001248	3.075796
260.125012	0.000926	0.004955	0.001245	3.074772
260.527060	0.000926	0.004964	0.001237	3.077227
260.929108	0.000926	0.004852	0.001215	3.083484
261.331156	0.000924	0.004893	0.001217	3.082502
261.733204	0.000923	0.004945	0.001190	3.068795
262.135251	0.000922	0.004863	0.001165	3.096458
262.537299	0.000920	0.004859	0.001175	3.088334
262.939347	0.000917	0.004830	0.001154	3.071995
263.341395	0.000913	0.004941	0.001123	3.081144
263.743443	0.000910	0.004799	0.001101	3.094253
264.145491	0.000906	0.004820	0.001095	3.097284
264.547539	0.000902	0.004763	0.001097	3.078509
264.949587	0.000897	0.004655	0.001058	3.087500
265.351635	0.000892	0.004659	0.001046	3.102672
265.753683	0.000886	0.004682	0.001022	3.088864
266.155731	0.000880	0.004649	0.001026	3.087815
266.557779	0.000874	0.004492	0.000976	3.076384
266.959827	0.000867	0.004501	0.000971	3.091360
267.361875	0.000860	0.004436	0.000940	3.078860
267.763922	0.000852	0.004473	0.000928	3.074841
268.165970	0.000844	0.004510	0.000902	3.084542
268.568018	0.000836	0.004373	0.000865	3.087448
268.970066	0.000827	0.004184	0.000850	3.086793
269.372114	0.000818	0.004108	0.000835	3.102994
269.774162	0.000809	0.004094	0.000799	3.117904
270.176210	0.000799	0.003944	0.000786	3.119962
270.578258	0.000789	0.003868	0.000759	3.101323
270.980306	0.000779	0.003985	0.000741	3.120326
271.382354	0.000768	0.004062	0.000737	3.141524
271.784402	0.000757	0.003994	0.000738	3.122213
272.186450	0.000746	0.003986	0.000709	3.124332
272.588498	0.000735	0.003827	0.000672	-3.129206
272.990546	0.000724	0.003758	0.000661	-3.132696
273.392594	0.000713	0.003654	0.000648	-3.126890
273.794641	0.000701	0.003673	0.000638	-3.130673
274.196689	0.000689	0.003676	0.000615	3.128471
274.598737	0.000678	0.003601	0.000609	-3.111623
275.000785	0.000666	0.003470	0.000582	3.130367
275.402833	0.000655	0.003364	0.000560	-3.089130
275.804881	0.000643	0.003370	0.000555	-3.139958
276.206929	0.000631	0.003249	0.000535	-3.108657
276.608977	0.000619	0.003218	0.000524	3.137699
277.011025	0.000607	0.003175	0.000493	-3.141364
277.413073	0.000595	0.003276	0.000501	-3.090953
277.815121	0.000583	0.003329	0.000484	-3.108749
278.217169	0.000571	0.003168	0.000475	-3.113615
278.619217	0.000560	0.003192	0.000458	-3.119920
279.021265	0.000549	0.002959	0.000441	-3.097113
279.423312	0.000538	0.002853	0.000435	-3.130927
279.825360	0.000526	0.002748	0.000414	-3.098182
280.227408	0.000515	0.002657	0.000406	-3.109440
280.629456	0.000504	0.002762	0.000404	-3.096290
281.031504	0.000493	0.002685	0.000398	-3.121665
281.433552	0.000483	0.002729	0.000382	-3.090129
281.835600	0.000473	0.002671	0.000376	-3.089911
282.237648	0.000462	0.002641	0.000371	-3.081125
282.639696	0.000453	0.002579	0.000373	-3.100119
283.041744	0.000443	0.002517	0.000351	-3.103867
283.443792	0.000434	0.002370	0.000343	-3.128067
283.845840	0.000425	0.002320	0.000326	-3.054544
284.247888	0.000416	0.002256	0.000337	-3.090240
284.649936	0.000408	0.002317	0.000347	-3.099949
285.051984	0.000400	0.002181	0.000330	-3.137429
285.454031	0.000392	0.002295	0.000327	3.125419
285.856079	0.000384	0.002338	0.000328	-3.111160
286.258127	0.000377	0.002196	0.000314	-3.111821
286.660175	0.000370	0.002365	0.000350	3.099387
287.062223	0.000364	0.002089	0.000314	-3.134871
287.464271	0.000358	0.002056	0.000320	-3.092644
287.866319	0.000352	0.002026	0.000319	3.121956
288.268367	0.000346	0.002054	0.000325	3.081884
288.670415	0.000340	0.002042	0.000328	-3.064063
289.072463	0.000336	0.002006	0.000330	3.117401
289.474511	0.000331	0.002094	0.000324	3.100860
289.876559	0.000327	0.001993	0.000328	3.122510
290.278607	0.000322	0.002058	0.000338	3.135800
290.680655	0.000319	0.001982	0.000334	3.113098
291.082703	0.000316	0.001902	0.000336	3.114279
291.484750	0.000313	0.001999	0.000343	3.103351
291.886798	0.000310	0.001976	0.000345	3.100209
292.288846	0.000308	0.001921	0.000347	3.119481
292.690894	0.000305	0.001960	0.000354	3.079895
293.092942	0.000303	0.001990	0.000357	3.102878
293.494990	0.000302	0.001991	0.000363	3.079620
293.897038	0.000301	0.001867	0.000370	3.088336
294.299086	0.000300	0.001914	0.000372	3.071799
294.701134	0.000299	0.001885	0.000373	3.078330
295.103182	0.000298	0.001915	0.000378	3.078190
295.505230	0.000298	0.001847	0.000388	3.074520
295.907278	0.000298	0.001916	0.000386	3.070337
296.309326	0.000297	0.001918	0.000393	3.075854
296.711374	0.000298	0.001919	0.000403	3.052141
297.113421	0.000299	0.001866	0.000402	3.056490
297.515469	0.000299	0.001929	0.000410	3.053731
297.917517	0.000300	0.001836	0.000410	3.089699
298.319565	0.000301	0.001953	0.000428	3.060672
298.721613	0.000302	0.002026	0.000427	3.062345
299.123661	0.000303	0.001856	0.000426	3.049033
299.525709	0.000304	0.001977	0.000429	3.075497
299.927757	0.000306	0.001990	0.000434	3.070784
300.329805	0.000307	0.002027	0.000444	3.090181
300.731853	0.000309	0.002043	0.000449	3.078477
301.133901	0.000311	0.002057	0.000447	3.079721
301.535949	0.000312	0.002056	0.000455	3.079828
301.937997	0.000314	0.002055	0.000460	3.089167
302.340045	0.000316	0.002067	0.000464	3.089888
302.742093	0.000318	0.002065	0.000470	3.066109
303.144140	0.000320	0.001938	0.000465	3.091254
303.546188	0.000321	0.002046	0.000482	3.078173
303.948236	0.000323	0.002068	0.000474	3.056949
304.350284	0.000325	0.002047	0.000475	3.090821
304.752332	0.000327	0.001999	0.000479	3.068531
305.154380	0.000329	0.002056	0.000483	3.072306
305.556428	0.000330	0.002045	0.000481	3.065950
305.958476	0.000332	0.001999	0.000475	3.058676
306.360524	0.000333	0.002086	0.000484	3.090499
306.762572	0.000335	0.002087	0.000487	3.065412
307.164620	0.000336	0.002063	0.000491	3.069905
307.566668	0.000337	0.002100	0.000487	3.086727
307.968716	0.000339	0.002066	0.000483	3.075094
308.370764	0.000340	0.002061	0.000479	3.070594
308.772812	0.000341	0.002082	0.000475	3.074992
309.174859	0.000342	0.002119	0.000480	3.079234
309.576907	0.000342	0.002090	0.000475	3.094847
309.978955	0.000343	0.002053	0.000469	3.085747
310.381003	0.000343	0.002113	0.000479	3.074902
310.783051	0.000343	0.002175	0.000476	3.099117
311.185099	0.000343	0.002255	0.000485	3.090048
311.587147	0.000344	0.002087	0.000458	3.078363
311.989195	0.000343	0.002082	0.000459	3.113715
312.391243	0.000343	0.002057	0.000460	3.105321
312.793291	0.000342	0.002176	0.000465	3.086020
313.195339	0.000342	0.002082	0.000450	3.104142
313.597387	0.000341	0.002071	0.000449	3.092552
313.999435	0.000340	0.002056	0.000439	3.102439
314.401483	0.000339	0.001995	0.000427	3.106934
314.803530	0.000338	0.002064	0.000435	3.098636
315.205578	0.000336	0.002048	0.000426	3.127689
315.607626	0.000335	0.002032	0.000429	3.113056
316.009674	0.000333	0.001994	0.000418	3.100712
316.411722	0.000331	0.001959	0.000404	3.090127
316.813770	0.000330	0.001974	0.000394	3.122204
317.215818	0.000327	0.002010	0.000406	3.124386
317.617866	0.000325	0.001998	0.000399	3.120386
318.019914	0.000323	0.001962	0.000388	3.138645
318.421962	0.000320	0.001943	0.000386	3.124993
318.824010	0.000317	0.001959	0.000375	3.126279
319.226058	0.000315	0.001914	0.000375	-3.138839
319.628106	0.000312	0.001904	0.000365	3.138237
320.030154	0.000309	0.001793	0.000353	3.115780
320.432202	0.000305	0.001767	0.000338	-3.138144
320.834249	0.000302	0.001847	0.000354	3.141296
321.236297	0.000298	0.001833	0.000334	-3.132149
321.638345	0.000295	0.001742	0.000332	3.129203
322.040393	0.000292	0.001702	0.000318	3.133226
322.442441	0.000288	0.001680	0.000317	3.129824
322.844489	0.000285	0.001685	0.000304	3.127072
323.246537	0.000281	0.001718	0.000306	-3.133256
323.648585	0.000277	0.001643	0.000292	-3.137947
324.050633	0.000273	0.001608	0.000285	-3.140830
324.452681	0.000269	0.001656	0.000284	3.140430
324.854729	0.000265	0.001702	0.000276	-3.140032
325.256777	0.000261	0.001581	0.000269	-3.120924
325.658825	0.000257	0.001529	0.000258	3.140658
326.060873	0.000253	0.001541	0.000251	-3.131087
326.462921	0.000249	0.001565	0.000246	3.131746
326.864968	0.000245	0.001557	0.000243	-3.136391
327.267016	0.000241	0.001439	0.000236	-3.124315
327.669064	0.000237	0.001405	0.000225	-3.128543
328.071112	0.000233	0.001391	0.000226	3.119161
328.473160	0.000229	0.001416	0.000213	-3.132635
328.875208	0.000225	0.001371	0.000209	3.134749
329.277256	0.000221	0.001391	0.000206	-3.140331
329.679304	0.000217	0.001410	0.000201	-3.130232
330.081352	0.000213	0.001334	0.000195	-3.113215
330.483400	0.000209	0.001284	0.000190	-3.133999
330.885448	0.000206	0.001227	0.000182	3.133847
331.287496	0.000202	0.001200	0.000176	-3.131394
331.689544	0.000198	0.001169	0.000173	-3.115431
332.091592	0.000194	0.001230	0.000173	-3.126778
332.493639	0.000191	0.001180	0.000169	-3.099690
332.895687	0.000187	0.001161	0.000162	3.124064
333.297735	0.000183	0.001218	0.000161	-3.109172
333.699783	0.000180	0.001123	0.000155	-3.105565
334.101831	0.000177	0.001110	0.000156	-3.134391
334.503879	0.000174	0.001153	0.000151	-3.137104
334.905927	0.000171	0.001112	0.000146	-3.127934
335.307975	0.000168	0.001046	0.000148	-3.140047
335.710023	0.000165	0.001042	0.000143	3.135032
336.112071	0.000162	0.001037	0.000143	3.136967
336.514119	0.000160	0.000980	0.000138	-3.139620
336.916167	0.000157	0.001008	0.000137	3.137504
337.318215	0.000155	0.000973	0.000136	3.134622
337.720263	0.000152	0.000954	0.000135	3.122465
338.122311	0.000150	0.000911	0.000128	3.128176
338.524358	0.000147	0.000953	0.000128	3.127885
338.926406	0.000146	0.000882	0.000131	-3.118090
339.328454	0.000143	0.000957	0.000138	3.123612
339.730502	0.000142	0.000907	0.000131	3.098450
340.132550	0.000140	0.000951	0.000126	-3.140111
340.534598	0.000138	0.000955	0.000125	3.088411
340.936646	0.000136	0.000900	0.000129	3.124649
341.338694	0.000135	0.000883	0.000131	3.117882
341.740742	0.000133	0.000922	0.000131	3.096938
342.142790	0.000132	0.000930	0.000129	3.049392
342.544838	0.000130	0.000948	0.000131	3.115179
342.946886	0.000130	0.000902	0.000133	3.074336
343.348934	0.000128	0.000832	0.000126	3.077970
343.750982	0.000128	0.000846	0.000130	3.096876
344.153029	0.000127	0.000839	0.000129	3.056528
344.555077	0.000126	0.000868	0.000130	3.078223
344.957125	0.000125	0.000834	0.000133	3.073379
345.359173	0.000125	0.000866	0.000132	3.057738
345.761221	0.000124	0.000895	0.000134	3.067980
346.163269	0.000124	0.000832	0.000136	3.043632
346.565317	0.000124	0.000822	0.000135	3.067595
346.967365	0.000124	0.000869	0.000133	3.024440
347.369413	0.000124	0.000857	0.000136	3.042372
347.771461	0.000123	0.000815	0.000134	3.052904
348.173509	0.000123	0.000856	0.000141	3.044714
348.575557	0.000123	0.000842	0.000137	3.036746
348.977605	0.000123	0.000859	0.000142	3.047345
349.379653	0.000123	0.000813	0.000142	3.036853
349.781701	0.000123	0.000807	0.000146	3.051857
350.183748	0.000123	0.000839	0.000146	3.027658
350.585796	0.000123	0.000885	0.000147	3.028250
350.987844	0.000124	0.000820	0.000149	3.031939
351.389892	0.000124	0.000822	0.000146	3.083361
351.791940	0.000124	0.000826	0.000151	3.068237
352.193988	0.000124	0.000775	0.000147	3.051559
352.596036	0.000124	0.000829	0.000160	3.037283
352.998084	0.000124	0.000846	0.000153	3.033469
353.400132	0.000124	0.000803	0.000153	3.061255
353.802180	0.000124	0.000832	0.000159	3.075027
354.204228	0.000125	0.000824	0.000159	3.059712
354.606276	0.000124	0.000869	0.000161	3.056485
355.008324	0.000125	0.000835	0.000157	3.038835
355.410372	0.000125	0.000843	0.000158	3.056276
355.812420	0.000125	0.000833	0.000163	3.042944
356.214467	0.000125	0.000832	0.000163	3.046462
356.616515	0.000125	0.000801	0.000159	3.049021
357.018563	0.000125	0.000802	0.000161	3.076924
357.420611	0.000125	0.000819	0.000162	3.056515
357.822659	0.000125	0.000825	0.000157	3.033365
358.224707	0.000125	0.000807	0.000161	3.091352
358.626755	0.000125	0.000811	0.000162	3.079612
359.028803	0.000125	0.000831	0.000165	3.054597
359.430851	0.000124	0.000800	0.000159	3.059792
359.832899	0.000124	0.000822	0.000163	3.048049
360.234947	0.000124	0.000827	0.000160	3.057940
360.636995	0.000124	0.000836	0.000157	3.083004
361.039043	0.000124	0.000821	0.000160	3.122126
361.441091	0.000123	0.000795	0.000160	3.089328
361.843138	0.000123	0.000861	0.000164	3.055295
362.245186	0.000123	0.000780	0.000155	3.104495
362.647234	0.000122	0.000798	0.000156	3.102686
363.049282	0.000122	0.000809	0.000159	3.117100
363.451330	0.000121	0.000830	0.000160	3.078624
363.853378	0.000121	0.000806	0.000154	3.084731
364.255426	0.000121	0.000734	0.000153	3.073991
364.657474	0.000120	0.000793	0.000155	3.069507
365.059522	0.000119	0.000740	0.000147	3.124021
365.461570	0.000119	0.000760	0.000149	3.085560
365.863618	0.000118	0.000736	0.000149	3.088427
366.265666	0.000117	0.000775	0.000143	3.076303
366.667714	0.000117	0.000755	0.000142	3.114291
367.069762	0.000116	0.000756	0.000144	3.087399
367.471810	0.000115	0.000766	0.000144	3.107558
367.873857	0.000114	0.000774	0.000136	3.120380
368.275905	0.000113	0.000756	0.000138	3.122716
368.677953	0.000113	0.000733	0.000132	3.102940
369.080001	0.000112	0.000707	0.000130	3.106610
369.482049	0.000111	0.000732	0.000132	3.125844
369.884097	0.000110	0.000714	0.000133	3.113250
370.286145	0.000109	0.000704	0.000124	3.086734
370.688193	0.000108	0.000688	0.000123	3.105945
371.090241	0.000107	0.000683	0.000122	3.120463
371.492289	0.000106	0.000708	0.000120	3.107579
371.894337	0.000105	0.000680	0.000119	3.115216
372.296385	0.000103	0.000660	0.000116	3.118554
372.698433	0.000102	0.000679	0.000112	3.117403
373.100481	0.000101	0.000684	0.000115	3.134029
373.502529	0.000100	0.000652	0.000110	3.124139
373.904576	9.911386E-5	0.000649	0.000110	-3.139363
374.306624	9.802537E-5	0.000656	0.000110	3.123187
374.708672	9.711769E-5	0.000612	0.000104	3.134908
375.110720	9.589697E-5	0.000636	0.000105	3.124187
375.512768	9.465423E-5	0.000613	0.000102	-3.131804
375.914816	9.342211E-5	0.000580	9.858729E-5	3.127184
376.316864	9.217227E-5	0.000587	9.715322E-5	3.066061
376.718912	9.103629E-5	0.000611	9.582692E-5	-3.120474
377.120960	8.984237E-5	0.000604	9.562515E-5	3.128083
377.523008	8.863281E-5	0.000600	8.921036E-5	3.082411
377.925056	8.761687E-5	0.000605	8.733440E-5	3.111328
378.327104	8.655304E-5	0.000586	8.850884E-5	3.124376
378.729152	8.538686E-5	0.000586	8.667305E-5	3.085580
379.131200	8.431593E-5	0.000575	8.472177E-5	3.126840
379.533247	8.331503E-5	0.000541	8.271325E-5	3.124219
379.935295	8.234499E-5	0.000512	7.902474E-5	3.124714
380.337343	8.115920E-5	0.000538	7.656142E-5	3.137795
380.739391	7.998487E-5	0.000560	7.956349E-5	3.106819
381.141439	7.904385E-5	0.000562	7.530299E-5	3.090426
381.543487	7.804584E-5	0.000529	7.650853E-5	3.120446
381.945535	7.707364E-5	0.000513	7.308374E-5	3.126760
382.347583	7.605332E-5	0.000491	7.174490E-5	3.061712
382.749631	7.532339E-5	0.000466	7.047981E-5	3.140464
383.151679	7.424528E-5	0.000507	6.997874E-5	3.067398
383.553727	7.332068E-5	0.000466	6.559797E-5	3.101085
383.955775	7.221613E-5	0.000488	6.519713E-5	3.112974
384.357823	7.124967E-5	0.000494	6.785899E-5	3.105549
384.759871	7.036639E-5	0.000487	6.572408E-5	3.073474
385.161919	6.957365E-5	0.000472	6.390911E-5	3.049102
385.563966	6.865454E-5	0.000448	6.034811E-5	3.086796
385.966014	6.772894E-5	0.000469	6.026518E-5	3.077661
386.368062	6.683735E-5	0.000497	6.081848E-5	3.063289
386.770110	6.602152E-5	0.000489	6.126306E-5	3.082481
387.172158	6.534514E-5	0.000445	5.990568E-5	3.089345
387.574206	6.464055E-5	0.000438	5.634983E-5	3.015460
387.976254	6.401321E-5	0.000386	5.587137E-5	3.043092
388.378302	6.318583E-5	0.000428	5.623981E-5	3.094194
388.780350	6.254499E-5	0.000407	5.601924E-5	3.031814
389.182398	6.187688E-5	0.000445	5.281966E-5	3.065201
389.584446	6.127570E-5	0.000396	5.353328E-5	3.059551
389.986494	6.056549E-5	0.000438	5.317550E-5	3.057125
390.388542	6.003332E-5	0.000397	5.289914E-5	3.053096
390.790590	5.959845E-5	0.000392	5.077012E-5	3.099190
391.192637	5.908864E-5	0.000375	5.305061E-5	3.028113
391.594685	5.849888E-5	0.000402	5.211530E-5	3.062428
391.996733	5.801092E-5	0.000406	5.060803E-5	3.090176
392.398781	5.770161E-5	0.000412	5.245400E-5	3.122025
392.800829	5.736614E-5	0.000350	5.218585E-5	3.090640
393.202877	5.684949E-5	0.000404	5.423720E-5	3.063521
393.604925	5.639525E-5	0.000397	5.278251E-5	3.043241
394.006973	5.605954E-5	0.000421	5.209954E-5	3.061485
394.409021	5.594081E-5	0.000331	4.878958E-5	3.065924
394.811069	5.533903E-5	0.000368	5.109535E-5	3.085773
395.213117	5.482798E-5	0.000383	5.221897E-5	3.061899
395.615165	5.430282E-5	0.000369	5.145544E-5	3.056607
396.017213	5.364599E-5	0.000376	4.899897E-5	3.077690
396.419261	5.296515E-5	0.000354	4.811657E-5	3.121014
396.821309	5.238345E-5	0.000352	5.000291E-5	3.115615
397.223356	5.162635E-5	0.000329	4.473173E-5	3.110983
397.625404	5.080543E-5	0.000333	4.947165E-5	-3.132813
398.027452	5.018194E-5	0.000334	4.718001E-5	3.139533
398.429500	4.955996E-5	0.000364	4.881657E-5	3.129160
398.831548	4.909222E-5	0.000331	4.779459E-5	3.125167
399.233596	4.851621E-5	0.000360	4.916996E-5	3.117356
399.635644	4.804184E-5	0.000320	4.633583E-5	3.089150
400.037692	4.753457E-5	0.000362	4.913112E-5	3.135636
400.439740	4.722800E-5	0.000311	4.806624E-5	3.135031
400.841788	4.664627E-5	0.000357	5.319709E-5	3.107100
401.243836	4.629826E-5	0.000294	4.759496E-5	3.035722
401.645884	4.597456E-5	0.000306	4.607627E-5	3.072849
402.047932	4.553193E-5	0.000300	4.654078E-5	3.073391
402.449980	4.511083E-5	0.000336	4.748897E-5	3.089189
402.852028	4.466379E-5	0.000334	4.898371E-5	3.067127
403.254075	4.423800E-5	0.000353	4.809191E-5	3.062797
403.656123	4.389736E-5	0.000329	4.711931E-5	3.055325
404.058171	4.354756E-5	0.000333	4.732223E-5	3.120508
404.460219	4.315948E-5	0.000346	4.811802E-5	3.090856
404.862267	4.273742E-5	0.000323	4.619945E-5	3.133366
405.264315	4.239291E-5	0.000314	4.747545E-5	3.094443
405.666363	4.208540E-5	0.000311	4.585455E-5	3.126308
406.068411	4.169266E-5	0.000295	4.675764E-5	3.133905
406.470459	4.120214E-5	0.000342	4.794681E-5	3.088968
406.872507	4.107198E-5	0.000280	4.357237E-5	3.057366
407.274555	4.066196E-5	0.000308	4.709926E-5	3.109443
407.676603	4.036297E-5	0.000283	4.305902E-5	3.130516
408.078651	4.000928E-5	0.000292	4.769133E-5	-3.135853
408.480699	3.969160E-5	0.000287	4.438490E-5	3.088038
408.882746	3.934935E-5	0.000297	4.508939E-5	3.113022
409.284794	3.906857E-5	0.000281	4.253112E-5	3.021762
409.686842	3.869437E-5	0.000298	4.444979E-5	3.087936
410.088890	3.841300E-5	0.000283	4.291421E-5	3.110419
410.490938	3.818258E-5	0.000286	4.446216E-5	3.101244
410.892986	3.788510E-5	0.000273	4.148897E-5	3.103613
411.295034	3.759651E-5	0.000268	4.376675E-5	3.065686
411.697082	3.728114E-5	0.000271	3.964336E-5	3.084594
412.099130	3.701557E-5	0.000277	4.112149E-5	3.121988
412.501178	3.679982E-5	0.000236	4.075848E-5	3.120095
412.903226	3.654797E-5	0.000243	3.899400E-5	-3.139059
413.305274	3.624365E-5	0.000263	4.104840E-5	-3.083879
413.707322	3.588155E-5	0.000287	4.204440E-5	3.099347
414.109370	3.572079E-5	0.000252	3.825429E-5	3.122716
414.511418	3.549155E-5	0.000259	4.026162E-5	-3.102139
414.913465	3.531399E-5	0.000252	3.987671E-5	-3.100999
415.315513	3.496442E-5	0.000268	4.112125E-5	-3.120664
415.717561	3.476464E-5	0.000265	3.920544E-5	3.127071
416.119609	3.467703E-5	0.000254	3.850194E-5	-3.123130
416.521657	3.442411E-5	0.000279	4.070402E-5	3.098330
416.923705	3.422709E-5	0.000258	3.883184E-5	-3.132552
417.325753	3.405020E-5	0.000263	3.898778E-5	3.133879
417.727801	3.390794E-5	0.000234	3.631682E-5	3.128986
418.129849	3.366817E-5	0.000252	3.822527E-5	3.134270
418.531897	3.355009E-5	0.000219	3.798488E-5	3.079404
418.933945	3.309891E-5	0.000264	3.730265E-5	3.076576
419.335993	3.301703E-5	0.000246	3.688272E-5	3.054179
419.738041	3.277529E-5	0.000238	3.467232E-5	3.082444
420.140089	3.268345E-5	0.000223	3.616952E-5	3.051525
420.542137	3.253274E-5	0.000246	3.219166E-5	3.079886
420.944184	3.246082E-5	0.000242	3.569963E-5	-3.127057
421.346232	3.236063E-5	0.000217	3.349678E-5	3.043576
421.748280	3.220664E-5	0.000217	3.252950E-5	3.065494
422.150328	3.204871E-5	0.000230	3.067055E-5	3.083594
422.552376	3.179104E-5	0.000243	3.440705E-5	-3.137645
422.954424	3.162017E-5	0.000227	3.075769E-5	3.024713
423.356472	3.140039E-5	0.000251	3.340240E-5	3.108043
423.758520	3.121462E-5	0.000220	3.006083E-5	3.056045
424.160568	3.093925E-5	0.000216	3.060489E-5	-3.104555
424.562616	3.072227E-5	0.000223	2.976650E-5	3.110524
424.964664	3.050598E-5	0.000211	3.029342E-5	-3.138116
425.366712	3.036314E-5	0.000224	2.882593E-5	-3.099111
425.768760	3.019630E-5	0.000231	3.064474E-5	-3.137503
426.170808	2.994093E-5	0.000236	3.111142E-5	-3.135351
426.572855	2.974816E-5	0.000213	2.950621E-5	-3.072647
426.974903	2.948302E-5	0.000225	2.885907E-5	3.108685
427.376951	2.936060E-5	0.000231	3.060922E-5	-3.115125
427.778999	2.913145E-5	0.000218	3.009433E-5	-3.103764
428.181047	2.890547E-5	0.000218	2.967486E-5	-3.137441
428.583095	2.868255E-5	0.000220	2.761783E-5	3.110351
428.985143	2.849640E-5	0.000222	2.814715E-5	-3.118751
429.387191	2.833164E-5	0.000227	2.922814E-5	3.115874
429.789239	2.815472E-5	0.000196	2.644447E-5	3.066922
430.191287	2.788408E-5	0.000211	2.734818E-5	3.125772
430.593335	2.778215E-5	0.000192	2.874619E-5	-3.113953
430.995383	2.753494E-5	0.000209	2.753373E-5	3.066236
431.397431	2.733278E-5	0.000204	2.450819E-5	3.013712
431.799479	2.707790E-5	0.000212	2.651417E-5	3.117964
432.201527	2.689916E-5	0.000195	2.509038E-5	3.116979
432.603574	2.664663E-5	0.000206	2.429141E-5	3.115682
433.005622	2.639594E-5	0.000210	2.293251E-5	3.097122
433.407670	2.617665E-5	0.000218	2.644654E-5	3.084102
433.809718	2.592527E-5	0.000221	2.481120E-5	-3.096739
434.211766	2.576428E-5	0.000186	2.457430E-5	3.113733
434.613814	2.547215E-5	0.000199	2.378191E-5	-3.106990
435.015862	2.527129E-5	0.000199	2.566938E-5	-3.135413
435.417910	2.510709E-5	0.000188	2.304378E-5	-3.117884
435.819958	2.483131E-5	0.000196	2.387341E-5	-3.073720
436.222006	2.451900E-5	0.000200	2.479580E-5	3.110991
436.624054	2.439837E-5	0.000161	2.342378E-5	-3.117635
437.026102	2.401959E-5	0.000182	2.247377E-5	3.105647
437.428150	2.384527E-5	0.000176	2.227861E-5	-3.110544
437.830198	2.348901E-5	0.000194	2.360962E-5	3.122273
438.232246	2.327147E-5	0.000196	2.276830E-5	-3.127700
438.634293	2.304531E-5	0.000169	2.265637E-5	3.109706
439.036341	2.272602E-5	0.000176	2.003268E-5	3.121959
439.438389	2.239460E-5	0.000198	2.281767E-5	-3.039977
439.840437	2.213603E-5	0.000194	2.253027E-5	-3.114512
440.242485	2.193576E-5	0.000168	2.199026E-5	-3.112526
440.644533	2.157523E-5	0.000195	2.195171E-5	3.064508
441.046581	2.135701E-5	0.000175	1.904724E-5	3.021327
441.448629	2.110362E-5	0.000156	1.944320E-5	-3.065718
441.850677	2.066453E-5	0.000183	2.114752E-5	3.115267
442.252725	2.048924E-5	0.000150	1.951027E-5	3.077133
442.654773	2.014348E-5	0.000154	1.889427E-5	3.062179
443.056821	1.985591E-5	0.000142	1.780718E-5	3.120982
443.458869	1.950338E-5	0.000164	1.899461E-5	-3.112909
443.860917	1.928271E-5	0.000131	1.798249E-5	-3.137183
444.262964	1.891834E-5	0.000145	1.786013E-5	3.121942
444.665012	1.873907E-5	0.000117	1.555522E-5	-3.119388
445.067060	1.835856E-5	0.000160	1.746364E-5	-3.062621
445.469108	1.802496E-5	0.000170	1.744246E-5	3.057013
445.871156	1.789172E-5	0.000130	1.606986E-5	-3.128749
446.273204	1.758643E-5	0.000133	1.575904E-5	-3.123107
446.675252	1.721893E-5	0.000137	1.727686E-5	3.132021
447.077300	1.693017E-5	0.000144	1.617013E-5	3.130561
447.479348	1.675910E-5	0.000133	1.445062E-5	3.123343
447.881396	1.641143E-5	0.000137	1.525833E-5	-3.058524
448.283444	1.612124E-5	0.000135	1.522299E-5	3.130671
448.685492	1.589284E-5	0.000132	1.561539E-5	-3.134821
449.087540	1.562190E-5	0.000129	1.440008E-5	3.138884
449.489588	1.531917E-5	0.000126	1.484852E-5	-3.120978
449.891636	1.507724E-5	0.000123	1.409455E-5	3.037097
450.293683	1.480286E-5	0.000123	1.264541E-5	-3.081649
450.695731	1.450336E-5	0.000127	1.239720E-5	3.061428
451.097779	1.432763E-5	0.000109	1.167613E-5	3.088997
451.499827	1.405409E-5	0.000133	1.094034E-5	3.133311
451.901875	1.376065E-5	0.000117	1.120399E-5	3.132996
452.303923	1.361389E-5	0.000100	1.106783E-5	-3.108174
452.705971	1.335147E-5	9.740494E-5	1.105575E-5	-2.978913
453.108019	1.309497E-5	9.817771E-5	1.243758E-5	3.051613
453.510067	1.282058E-5	0.000101	9.455817E-6	-3.124811
453.912115	1.257936E-5	0.000113	1.115564E-5	-3.001370
454.314163	1.241142E-5	9.429295E-5	1.205333E-5	-3.135550
454.716211	1.214222E-5	0.000110	1.025984E-5	3.087956
455.118259	1.194255E-5	0.000106	9.202386E-6	-3.129843
455.520307	1.169539E-5	0.000113	1.066509E-5	3.126811
455.922354	1.149479E-5	0.000105	1.022129E-5	-3.121442
456.324402	1.130962E-5	9.890667E-5	9.410518E-6	3.129726
456.726450	1.110220E-5	9.432198E-5	8.872023E-6	3.013391
457.128498	1.090350E-5	9.481910E-5	8.746127E-6	-3.103990
457.530546	1.068037E-5	0.000108	8.713135E-6	3.104808
457.932594	1.052445E-5	9.756156E-5	8.286900E-6	3.065549
458.334642	1.038061E-5	9.458396E-5	7.840177E-6	3.061416
458.736690	1.017457E-5	0.000104	7.619875E-6	3.095915
459.138738	1.003980E-5	7.829438E-5	7.451531E-6	3.054345
459.540786	9.881209E-6	8.499509E-5	7.350000E-6	-3.099539
459.942834	9.766487E-6	8.940823E-5	8.720314E-6	3.121299
460.344882	9.575704E-6	0.000107	8.032651E-6	3.011825
460.746930	9.477436E-6	7.825969E-5	6.853621E-6	3.072310
461.148978	9.308871E-6	8.328503E-5	6.398408E-6	3.081250
461.551026	9.214046E-6	7.790465E-5	7.189574E-6	-3.134438
461.953073	9.094226E-6	7.353033E-5	6.595880E-6	-3.072192
462.355121	8.933631E-6	8.343506E-5	6.354851E-6	3.063765
462.757169	8.860660E-6	8.816364E-5	6.987126E-6	2.915250
463.159217	8.734802E-6	8.862229E-5	5.262156E-6	-3.037333
463.561265	8.698303E-6	6.607581E-5	6.396811E-6	-3.056232
463.963313	8.543121E-6	7.630245E-5	5.917735E-6	3.091582
464.365361	8.468519E-6	6.881864E-5	5.355445E-6	-3.113002
464.767409	8.356911E-6	9.851092E-5	6.652065E-6	3.127382
465.169457	8.313465E-6	7.231351E-5	4.994408E-6	3.043102
465.571505	8.182280E-6	8.138302E-5	6.138780E-6	3.109787
465.973553	8.102802E-6	7.285228E-5	5.717632E-6	3.021629
466.375601	8.056934E-6	7.282185E-5	5.007295E-6	3.057408
466.777649	7.983918E-6	6.661778E-5	5.804620E-6	2.953878
467.179697	7.888896E-6	7.699590E-5	5.147052E-6	3.075086
467.581745	7.806635E-6	9.347831E-5	6.012201E-6	-3.020385
467.983792	7.734456E-6	8.369714E-5	5.492605E-6	-3.127851
468.385840	7.701875E-6	6.031639E-5	5.060426E-6	3.141008
468.787888	7.544732E-6	9.704598E-5	5.997205E-6	3.039693
469.189936	7.496867E-6	7.463705E-5	5.123272E-6	-3.128425
469.591984	7.457987E-6	7.528199E-5	5.670224E-6	3.129992
469.994032	7.342931E-6	8.071648E-5	5.672175E-6	-3.083305
470.396080	7.272837E-6	8.299339E-5	5.842942E-6	3.141127
470.798128	7.260782E-6	6.112221E-5	4.859544E-6	3.001617
471.200176	7.174636E-6	7.281689E-5	5.506558E-6	3.023478
471.602224	7.122381E-6	6.193315E-5	4.452802E-6	2.946700
472.004272	7.068363E-6	6.853771E-5	4.333447E-6	3.075304
472.406320	6.967798E-6	7.511814E-5	5.276198E-6	3.036768
472.808368	6.880442E-6	8.276575E-5	5.807556E-6	3.041937
473.210416	6.864874E-6	6.156322E-5	4.925892E-6	3.130985
473.612463	6.769441E-6	7.016933E-5	4.757788E-6	2.999072
474.014511	6.683164E-6	6.804408E-5	4.632478E-6	3.133399
474.416559	6.615419E-6	6.245560E-5	4.776979E-6	-2.956930
474.818607	6.518008E-6	6.358396E-5	5.350652E-6	-3.111258
475.220655	6.425856E-6	6.204819E-5	5.451335E-6	3.117778
475.622703	6.321610E-6	6.897189E-5	4.876842E-6	-3.047965
476.024751	6.225363E-6	6.348431E-5	5.168792E-6	-3.081786
476.426799	6.130851E-6	6.810632E-5	5.653930E-6	3.045382
476.828847	6.014164E-6	7.010789E-5	4.564020E-6	3.132368
477.230895	5.926665E-6	6.218920E-5	4.995290E-6	3.134363
477.632943	5.824813E-6	6.737145E-5	4.971632E-6	3.015784
478.034991	5.709737E-6	7.048292E-5	4.520023E-6	-3.070077
478.437039	5.552435E-6	7.547784E-5	4.711347E-6	3.109237
478.839087	5.472918E-6	6.335264E-5	4.947162E-6	-3.108718
479.241135	5.328250E-6	7.864298E-5	5.280100E-6	3.026994
479.643182	5.226152E-6	6.946763E-5	4.377520E-6	2.871248
480.045230	5.074225E-6	7.891000E-5	4.715646E-6	-3.013992
480.447278	4.966977E-6	6.251768E-5	5.205777E-6	3.112143
480.849326	4.849837E-6	5.766734E-5	5.253564E-6	3.106067
481.251374	4.762686E-6	5.399100E-5	4.647113E-6	3.041598
481.653422	4.627242E-6	6.931660E-5	5.343725E-6	2.910543
482.055470	4.509575E-6	7.419313E-5	4.485559E-6	2.894295
482.457518	4.399706E-6	7.450745E-5	5.123269E-6	2.991399
482.859566	4.309128E-6	6.644963E-5	4.266603E-6	2.877981
483.261614	4.242958E-6	6.174463E-5	4.845356E-6	3.072272
483.663662	4.144636E-6	6.971769E-5	4.922663E-6	3.049951
484.065710	4.125051E-6	6.948805E-5	4.669203E-6	2.998660
484.467758	4.082516E-6	6.004458E-5	4.515125E-6	2.822193
484.869806	4.072254E-6	6.667603E-5	4.649246E-6	2.934838
485.271854	4.090823E-6	5.871224E-5	4.972971E-6	2.935034
485.673901	4.117868E-6	7.636608E-5	4.551342E-6	2.878372
486.075949	4.208952E-6	5.897309E-5	4.665685E-6	2.781505
486.477997	4.281779E-6	6.193868E-5	4.701890E-6	2.992857
486.880045	4.444945E-6	5.799578E-5	5.078045E-6	2.823818
487.282093	4.535269E-6	6.630929E-5	5.187729E-6	2.909469
487.684141	4.769028E-6	4.792234E-5	5.050351E-6	2.941664
488.086189	4.957258E-6	5.542688E-5	5.627889E-6	2.867403
488.488237	5.154994E-6	5.426116E-5	5.181232E-6	3.077737
488.890285	5.386216E-6	4.902740E-5	5.254352E-6	2.994513
489.292333	5.584280E-6	6.047507E-5	5.680512E-6	3.087786
489.694381	5.886288E-6	5.069212E-5	6.083258E-6	2.959903
490.096429	6.107788E-6	4.870977E-5	6.034415E-6	3.072435
490.498477	6.351294E-6	6.995788E-5	6.186295E-6	2.864223
490.900525	6.582897E-6	5.099565E-5	5.388676E-6	3.121603
491.302572	6.835885E-6	5.478299E-5	6.410325E-6	2.962055
491.704620	7.053078E-6	5.137919E-5	5.541306E-6	2.772926
492.106668	7.208274E-6	5.367531E-5	5.585224E-6	2.960849
492.508716	7.471979E-6	3.574892E-5	4.738166E-6	3.019239
492.910764	7.547441E-6	5.434550E-5	5.502073E-6	2.982472
493.312812	7.694718E-6	5.818558E-5	5.211693E-6	2.775842
493.714860	7.828588E-6	5.822282E-5	4.171691E-6	3.037491
494.116908	7.838747E-6	6.026106E-5	4.505615E-6	2.996531
494.518956	7.865586E-6	6.031136E-5	4.771599E-6	-3.125084
494.921004	7.849523E-6	5.100192E-5	4.494405E-6	3.103543
495.323052	7.849470E-6	5.155364E-5	3.805050E-6	-3.045152
495.725100	7.850682E-6	3.344002E-5	3.089111E-6	3.134548
496.127148	7.750500E-6	5.289385E-5	4.092480E-6	-3.071513
496.529196	7.704513E-6	4.196963E-5	3.704689E-6	3.126357
496.931244	7.655436E-6	4.450786E-5	3.184505E-6	-2.923969
497.333291	7.587535E-6	4.256802E-5	3.490363E-6	-3.071320
497.735339	7.506004E-6	4.493730E-5	2.975127E-6	3.104161
498.137387	7.380212E-6	4.106413E-5	3.360446E-6	-2.874163
498.539435	7.316567E-6	5.215993E-5	3.350565E-6	-3.061905
498.941483	7.236840E-6	3.764941E-5	3.363765E-6	-3.053436
499.343531	7.150262E-6	3.403581E-5	2.281334E-6	-2.792048
499.745579	7.040596E-6	3.813990E-5	2.691656E-6	-2.868917
500.147627	6.927098E-6	3.315462E-5	2.604763E-6	3.094596
500.549675	6.837523E-6	3.314836E-5	2.679063E-6	-2.984250
500.951723	6.798025E-6	2.787214E-5	1.999401E-6	-3.125142
501.353771	6.579063E-6	4.195127E-5	2.200219E-6	-2.889372
501.755819	6.542844E-6	3.443255E-5	2.119413E-6	3.114750
502.157867	6.456604E-6	3.227980E-5	1.704509E-6	-2.722083
502.559915	6.293027E-6	4.024150E-5	2.026028E-6	-2.862106
502.961962	6.181583E-6	4.089521E-5	1.675451E-6	-3.004732
503.364010	6.101857E-6	3.543194E-5	1.581586E-6	-2.931012
503.766058	6.011776E-6	3.259304E-5	1.510020E-6	-2.574140
504.168106	5.886071E-6	3.476457E-5	1.779175E-6	-2.935314
504.570154	5.793431E-6	2.820679E-5	1.458984E-6	-2.878237
504.972202	5.696900E-6	2.945608E-5	1.269292E-6	-2.682410
505.374250	5.558840E-6	2.725588E-5	1.274771E-6	-2.876543
505.776298	5.500423E-6	2.876026E-5	1.149286E-6	-2.787998
506.178346	5.408200E-6	2.342181E-5	1.157077E-6	-2.785099
506.580394	5.282396E-6	2.365273E-5	9.655431E-7	3.079114
506.982442	5.127782E-6	3.458735E-5	8.490203E-7	-3.000957
507.384490	5.100022E-6	2.345133E-5	5.682819E-7	-2.968682
507.786538	4.959881E-6	3.582521E-5	1.000865E-6	-2.962143
508.188586	4.934263E-6	2.438277E-5	6.173875E-7	-3.128550
508.590634	4.812749E-6	2.583797E-5	5.664027E-7	2.937138
508.992681	4.700815E-6	2.651825E-5	5.259049E-7	2.847090
509.394729	4.617818E-6	3.197438E-5	2.899879E-7	3.060764
509.796777	4.528487E-6	2.402606E-5	2.543410E-7	-2.696557
510.198825	4.453168E-6	3.064269E-5	2.651459E-7	3.087800
510.600873	4.393696E-6	2.700576E-5	1.402397E-7	-2.884713
511.002921	4.321326E-6	2.011073E-5	1.449640E-7	-3.052539
511.404969	4.238706E-6	2.509801E-5	1.222631E-7	-3.107160
511.807017	4.142879E-6	2.315744E-5	8.572974E-8	-2.517240
512.209065	4.107916E-6	2.102670E-5	1.081643E-7	-3.104673
512.611113	4.046467E-6	2.388808E-5	4.413136E-8	2.771847
513.013161	3.935144E-6	2.908565E-5	1.281125E-8	-2.775358
513.415209	3.919109E-6	1.990703E-5	1.106214E-8	2.410876
513.817257	3.850334E-6	2.474010E-5	1.504808E-8	0.871611
514.219305	3.801861E-6	2.220132E-5	2.352914E-8	1.079075
514.621353	3.740534E-6	2.066724E-5	5.138206E-8	0.512833
515.023400	3.652846E-6	2.208254E-5	5.660137E-8	0.438818
515.425448	3.595733E-6	2.772828E-5	7.563911E-8	-0.489684
515.827496	3.520003E-6	2.944848E-5	6.142893E-8	-0.452768
516.229544	3.486418E-6	3.062728E-5	5.067268E-8	2.939214
516.631592	3.458230E-6	2.418223E-5	1.035107E-7	1.314023
517.033640	3.409297E-6	2.914949E-5	1.110865E-7	-0.514837
517.435688	3.356150E-6	2.972466E-5	6.136083E-8	0.386154
517.837736	3.340514E-6	2.041492E-5	1.330530E-7	2.976280
518.239784	3.259637E-6	3.084363E-5	7.135432E-8	-2.415293
518.641832	3.229222E-6	2.522238E-5	9.544306E-8	-1.761620
519.043880	3.187660E-6	1.991732E-5	2.608435E-7	1.966566
519.445928	3.154378E-6	1.704074E-5	5.896677E-8	2.189841
519.847976	3.124047E-6	2.166994E-5	2.478000E-7	2.900006
520.250024	3.076846E-6	1.701022E-5	1.650743E-7	1.285094
520.652071	3.025020E-6	1.917861E-5	9.103957E-8	1.311027
521.054119	2.991540E-6	2.554630E-5	5.961435E-8	2.759243
521.456167	2.947137E-6	2.341394E-5	1.614810E-7	2.437109
521.858215	2.925156E-6	1.576594E-5	2.328518E-7	2.589158
522.260263	2.901322E-6	1.762878E-5	1.216323E-7	2.548805
522.662311	2.887877E-6	1.834518E-5	1.663186E-7	1.621711
523.064359	2.831366E-6	2.184862E-5	1.848905E-7	2.975263
523.466407	2.807142E-6	2.133161E-5	2.408790E-7	3.039127
523.868455	2.789061E-6	1.997525E-5	3.798277E-7	-3.025897
524.270503	2.744403E-6	2.051208E-5	4.008919E-7	1.950457
524.672551	2.756092E-6	1.781215E-5	1.046063E-7	-2.534774
525.074599	2.680384E-6	2.909641E-5	3.334998E-7	3.011847
525.476647	2.651052E-6	2.457365E-5	2.461978E-7	-3.017558
525.878695	2.684556E-6	1.769758E-5	3.235396E-7	-3.063110
526.280743	2.650658E-6	1.456698E-5	3.081673E-7	-2.950492
526.682790	2.639643E-6	1.555932E-5	2.085197E-7	1.605375
527.084838	2.630322E-6	1.677096E-5	4.473039E-7	-2.920615
527.486886	2.587415E-6	2.702990E-5	4.758294E-7	-2.674658
527.888934	2.578116E-6	1.764797E-5	2.230801E-7	2.747427
528.290982	2.574886E-6	1.935866E-5	4.359495E-7	-2.564774
528.693030	2.544556E-6	2.079331E-5	4.825078E-7	-2.730419
529.095078	2.519845E-6	2.313629E-5	5.180609E-7	2.681355
529.497126	2.536957E-6	1.672899E-5	5.371852E-7	3.068582
529.899174	2.521729E-6	1.648741E-5	2.852899E-7	-2.990581
530.301222	2.514531E-6	1.417109E-5	5.123237E-7	-2.976123
530.703270	2.490764E-6	2.177407E-5	5.393120E-7	-2.664730
531.105318	2.504932E-6	1.290181E-5	4.730696E-7	3.121034
531.507366	2.458886E-6	1.528238E-5	3.531318E-7	-2.241410
531.909414	2.459726E-6	2.029590E-5	7.032270E-7	-2.954293
532.311462	2.448965E-6	1.592159E-5	4.977511E-7	2.925526
532.713509	2.455147E-6	1.423876E-5	2.002192E-7	-2.511082
533.115557	2.423337E-6	1.724151E-5	5.452334E-7	3.047055
533.517605	2.444852E-6	1.390735E-5	3.481297E-7	-2.668912
533.919653	2.434923E-6	1.644962E-5	5.916965E-7	2.960716
534.321701	2.417644E-6	1.768248E-5	4.885425E-7	-3.114526
534.723749	2.416032E-6	1.341713E-5	4.844643E-7	2.773057
535.125797	2.413874E-6	1.174327E-5	2.782619E-7	2.941986
535.527845	2.384594E-6	1.919973E-5	3.912183E-7	2.937588
535.929893	2.399383E-6	2.142078E-5	4.054889E-7	-3.045625
536.331941	2.382456E-6	1.501993E-5	2.064499E-7	2.943701
536.733989	2.371508E-6	1.525123E-5	3.404685E-7	-2.962554
537.136037	2.364326E-6	1.839606E-5	3.647239E-7	2.986007
537.538085	2.346411E-6	1.881342E-5	3.384195E-7	2.474431
537.940133	2.338818E-6	2.116286E-5	2.250302E-7	-2.536586
538.342180	2.346823E-6	1.175998E-5	1.226793E-7	2.303922
538.744228	2.343595E-6	1.376740E-5	1.151925E-7	-2.590622
539.146276	2.314684E-6	1.687752E-5	3.329031E-7	3.113593
539.548324	2.311962E-6	1.943941E-5	2.171447E-7	-1.824986
539.950372	2.306525E-6	1.235804E-5	9.021351E-8	3.047829
540.352420	2.308179E-6	1.260131E-5	2.676630E-7	-3.002344
540.754468	2.297586E-6	1.070434E-5	2.191745E-7	-2.929008
541.156516	2.280952E-6	1.471367E-5	8.418318E-8	-0.850265
541.558564	2.286617E-6	1.458910E-5	2.160057E-7	-2.503148
541.960612	2.285512E-6	1.495877E-5	1.915509E-7	-2.970948
542.362660	2.290045E-6	1.071894E-5	1.726725E-7	-2.702496
542.764708	2.263776E-6	1.361796E-5	1.301367E-7	-3.102740
543.166756	2.232578E-6	1.548411E-5	2.316928E-7	-2.063880
543.568804	2.236353E-6	1.469098E-5	2.187802E-7	-2.309204
543.970852	2.239459E-6	1.330562E-5	2.118024E-7	-2.010755
544.372899	2.233068E-6	1.341057E-5	2.466927E-7	-2.351487
544.774947	2.206976E-6	1.219590E-5	1.795512E-7	-2.298401
545.176995	2.206337E-6	1.349601E-5	2.559237E-7	-2.469945
545.579043	2.191523E-6	1.251721E-5	1.207148E-7	-3.027663
545.981091	2.182173E-6	1.092265E-5	9.716699E-8	-2.167313
546.383139	2.157650E-6	1.048858E-5	2.603874E-7	-2.397982
546.785187	2.180931E-6	1.199585E-5	1.440930E-7	-2.557231
547.187235	2.149138E-6	1.180693E-5	1.622788E-7	-2.289884
547.589283	2.120179E-6	1.650514E-5	1.539956E-7	-2.684436
547.991331	2.106690E-6	1.660816E-5	1.594075E-7	-1.946890
548.393379	2.123885E-6	1.205189E-5	1.539050E-7	-2.268063
548.795427	2.121439E-6	7.310099E-6	6.165880E-8	-2.560494
549.197475	2.082260E-6	1.016176E-5	1.588857E-7	-2.196587
549.599523	2.054447E-6	2.139020E-5	2.798330E-7	-2.536506
550.001570	2.059399E-6	2.196574E-5	2.275571E-7	-2.656834
550.403618	2.030728E-6	1.232228E-5	2.269853E-7	-2.073873
550.805666	2.033707E-6	1.256526E-5	2.868946E-7	-1.027761
551.207714	2.022205E-6	9.136221E-6	3.879942E-7	-1.929400
551.609762	1.978674E-6	1.167041E-5	4.143983E-7	-2.282890
552.011810	1.976203E-6	1.099390E-5	2.303944E-7	-2.962971
552.413858	1.932672E-6	1.175684E-5	3.428903E-7	-2.102964
552.815906	1.945767E-6	1.055960E-5	3.550437E-7	-2.292962
553.217954	1.916885E-6	1.224467E-5	3.786393E-7	-2.461799
553.620002	1.875448E-6	1.439204E-5	4.956412E-7	-2.288794
554.022050	1.874601E-6	1.674221E-5	6.171696E-7	-2.508539
554.424098	1.853806E-6	1.349130E-5	3.443846E-7	-2.917422
554.826146	1.840794E-6	1.297106E-5	4.622377E-7	-2.554766
555.228194	1.798447E-6	1.626502E-5	3.639300E-7	-2.675821
555.630242	1.771994E-6	1.405831E-5	3.939116E-7	-2.487600
556.032289	1.769358E-6	2.125570E-5	6.416868E-7	-2.352979
556.434337	1.759917E-6	1.335692E-5	7.194845E-7	-2.811468
556.836385	1.737133E-6	1.393891E-5	3.113799E-7	-2.697041
557.238433	1.695951E-6	1.245895E-5	5.180054E-7	-2.756003
557.640481	1.699755E-6	1.738566E-5	4.908043E-7	-2.546739
558.042529	1.659823E-6	1.382554E-5	4.915210E-7	-3.030701
558.444577	1.660936E-6	1.252662E-5	5.320042E-7	-2.624381
558.846625	1.663219E-6	6.264181E-6	5.302562E-7	-2.463591
559.248673	1.623486E-6	1.182910E-5	5.906778E-7	-1.853541
559.650721	1.622067E-6	1.043727E-5	3.264575E-7	-3.124369
560.052769	1.556467E-6	1.367752E-5	6.592142E-7	-2.657699
560.454817	1.538407E-6	1.472506E-5	4.813592E-7	-2.631458
560.856865	1.530736E-6	1.735942E-5	3.541926E-7	-1.985241
561.258913	1.525519E-6	8.918938E-6	7.137401E-7	-2.392300
561.660961	1.485698E-6	2.055284E-5	1.108887E-6	-2.374518
562.063008	1.464987E-6	1.329439E-5	8.805422E-7	-2.572822
562.465056	1.441379E-6	2.347412E-5	8.376846E-7	-2.761161
562.867104	1.425489E-6	1.029285E-5	7.229347E-7	-3.014380
563.269152	1.406494E-6	1.179522E-5	9.226685E-7	-2.625164
563.671200	1.378301E-6	1.318378E-5	1.092264E-6	-2.748558
564.073248	1.371972E-6	9.725334E-6	1.006652E-6	-2.840985
564.475296	1.359410E-6	8.669337E-6	1.078953E-6	-2.757750
564.877344	1.356444E-6	4.882419E-6	1.053416E-6	-3.017611
565.279392	1.317742E-6	1.319249E-5	9.847711E-7	-2.931039
565.681440	1.291457E-6	1.228537E-5	9.039467E-7	-3.064043
566.083488	1.275605E-6	1.026480E-5	1.121167E-6	-2.940202
566.485536	1.275167E-6	6.246537E-6	6.511431E-7	-2.710858
566.887584	1.253359E-6	9.596583E-6	1.040664E-6	-2.499329
567.289632	1.216115E-6	1.063175E-5	1.140952E-6	-2.919086
567.691679	1.205654E-6	1.244993E-5	9.886242E-7	-2.702739
568.093727	1.190701E-6	1.174339E-5	1.117430E-6	-2.969074
568.495775	1.170302E-6	1.052985E-5	1.093070E-6	-2.959278
568.897823	1.155081E-6	1.329955E-5	1.135526E-6	-2.998973
569.299871	1.157224E-6	7.375252E-6	1.049225E-6	-2.901458
569.701919	1.142104E-6	1.226444E-5	1.447636E-6	3.066634
570.103967	1.099311E-6	9.824987E-6	1.048496E-6	-3.036798
570.506015	1.103673E-6	9.085027E-6	1.055150E-6	-2.980034
570.908063	1.079250E-6	1.489958E-5	1.096941E-6	-2.969325
571.310111	1.064107E-6	1.058026E-5	1.664817E-6	-2.867919
571.712159	1.041361E-6	1.865632E-5	1.474511E-6	2.956296
572.114207	1.028875E-6	1.503995E-5	1.266734E-6	2.851472
572.516255	1.027605E-6	1.187762E-5	1.001670E-6	2.931956
572.918303	1.010435E-6	1.146257E-5	1.316347E-6	-3.001499
573.320351	1.013980E-6	1.273274E-5	1.545706E-6	2.882504
573.722398	1.006696E-6	1.510313E-5	1.166596E-6	-3.094606
574.124446	9.767829E-7	1.758911E-5	1.287543E-6	3.025524
574.526494	9.786335E-7	7.390768E-6	1.505274E-6	3.087226
574.928542	9.641148E-7	5.753840E-6	1.311804E-6	2.779513
575.330590	9.621464E-7	1.025357E-5	1.031710E-6	3.067793
575.732638	9.471739E-7	8.540542E-6	9.887955E-7	2.977216
576.134686	9.372782E-7	9.381894E-6	1.313267E-6	2.942518
576.536734	9.138605E-7	1.253898E-5	1.389441E-6	2.818505
576.938782	9.145873E-7	1.151235E-5	1.226458E-6	2.504262
577.340830	9.039383E-7	9.778345E-6	1.163861E-6	3.005191
577.742878	8.965141E-7	1.170086E-5	9.616581E-7	-3.014128
578.144926	8.898535E-7	1.299512E-5	1.576288E-6	2.814486
578.546974	8.892711E-7	6.040229E-6	1.024821E-6	2.836075
578.949022	8.600590E-7	1.815677E-5	1.097386E-6	2.904252
579.351070	8.686869E-7	1.216725E-5	9.099914E-7	-2.700635
579.753117	8.616563E-7	1.067918E-5	1.356532E-6	2.953223
580.155165	8.676355E-7	8.210653E-6	1.420997E-6	2.735975
580.557213	8.548527E-7	8.818456E-6	1.230863E-6	2.644209
580.959261	8.474020E-7	1.196330E-5	1.111581E-6	2.344026
581.361309	8.268169E-7	7.639036E-6	6.970862E-7	2.980855
581.763357	8.311368E-7	6.522101E-6	1.315170E-6	2.965846
582.165405	8.304060E-7	6.397931E-6	1.077549E-6	3.020089
582.567453	8.291514E-7	3.397017E-6	9.352475E-7	2.619715
582.969501	8.259516E-7	4.614158E-6	6.506329E-7	2.672372
583.371549	8.157335E-7	1.065052E-5	1.139751E-6	3.104939
583.773597	8.169857E-7	6.596034E-6	1.000691E-6	2.501285
584.175645	7.986095E-7	7.450583E-6	1.032788E-6	3.065655
584.577693	7.841763E-7	7.243921E-6	8.867963E-7	-2.898208
584.979741	7.786208E-7	1.187774E-5	9.952355E-7	3.131102
585.381788	7.838833E-7	5.491637E-6	8.475268E-7	-2.891161
585.783836	7.898364E-7	4.895843E-6	8.551695E-7	3.007375
586.185884	7.738927E-7	2.549805E-6	8.317675E-7	3.049057
586.587932	7.701499E-7	7.467713E-6	1.126624E-6	3.117452
586.989980	7.710859E-7	5.678506E-6	7.839104E-7	-2.974477
587.392028	7.600276E-7	3.706519E-6	8.257108E-7	-2.818066
587.794076	7.557480E-7	5.125682E-6	8.039674E-7	-3.030579
588.196124	7.381715E-7	6.995317E-6	1.142718E-6	3.112452
588.598172	7.418527E-7	5.013649E-6	9.183025E-7	3.089183
589.000220	7.269679E-7	4.457451E-6	7.133629E-7	-2.773413
589.402268	7.185147E-7	6.081895E-6	1.154604E-6	-3.107867
589.804316	7.175714E-7	8.269315E-6	9.040537E-7	2.978157
590.206364	7.226057E-7	7.364820E-6	9.460170E-7	3.071009
590.608412	7.107342E-7	2.617718E-6	4.865419E-7	-3.107737
591.010460	6.995074E-7	7.034203E-6	6.148348E-7	-2.658581
591.412507	6.952999E-7	6.156114E-6	6.431592E-7	-2.933335
591.814555	6.882733E-7	4.472272E-6	6.746926E-7	2.681899
592.216603	6.682422E-7	6.499177E-6	7.710404E-7	-2.964113
592.618651	6.635664E-7	4.040940E-6	6.715754E-7	-2.518716
593.020699	6.549461E-7	3.018937E-6	4.775942E-7	3.070359
593.422747	6.404227E-7	5.481792E-6	4.419857E-7	-2.669783
593.824795	6.326956E-7	3.595536E-6	4.124915E-7	-2.670099
594.226843	6.048238E-7	1.078780E-5	6.996826E-7	-2.997817
594.628891	6.225246E-7	2.746478E-6	3.512610E-7	-2.332546
595.030939	6.167242E-7	3.228937E-6	6.925223E-7	-2.852660
595.432987	6.179599E-7	6.880275E-6	8.459673E-7	2.805168
595.835035	6.111211E-7	7.479077E-6	7.043898E-7	-2.359434
596.237083	6.026003E-7	8.075713E-6	6.688086E-7	-2.972297
596.639131	6.025775E-7	8.183551E-6	6.099782E-7	-2.407261
597.041179	5.960578E-7	8.624128E-6	5.874503E-7	-2.446723
597.443226	6.006376E-7	3.439485E-6	6.836968E-7	-2.902091
597.845274	5.860589E-7	4.138221E-6	5.641896E-7	-2.697520
598.247322	5.799346E-7	6.594578E-6	6.513276E-7	-2.465781
598.649370	5.852373E-7	2.215527E-6	4.374801E-7	-2.768122
599.051418	5.627374E-7	1.781435E-5	8.462889E-7	-1.982669
599.453466	5.637353E-7	7.725968E-6	8.140818E-7	-2.587385
599.855514	5.700710E-7	1.118984E-5	4.637647E-7	-2.856519
600.257562	5.646088E-7	1.594632E-5	5.976783E-7	-2.159186
600.659610	5.656057E-7	1.025980E-5	6.289468E-7	-2.866729
601.061658	5.739561E-7	4.819668E-6	5.037867E-7	-2.248784
601.463706	5.739116E-7	1.134952E-5	8.891467E-7	-2.216260
601.865754	5.653493E-7	5.711480E-6	9.146006E-7	-2.664203
602.267802	5.666102E-7	9.873359E-6	6.879028E-7	-2.578997
602.669850	5.613094E-7	9.865187E-6	7.725515E-7	-2.464517
603.071897	5.745523E-7	6.565876E-6	6.007980E-7	-3.051968
603.473945	5.487641E-7	1.082944E-5	7.985516E-7	-2.648092
603.875993	5.594765E-7	1.108862E-5	9.465113E-7	-3.037856
604.278041	5.767000E-7	6.471548E-6	8.129531E-7	-2.840147
604.680089	5.645081E-7	1.138271E-5	1.008831E-6	-2.606565
605.082137	5.677860E-7	1.515224E-5	7.680695E-7	-2.991352
605.484185	5.656384E-7	1.437732E-5	9.624287E-7	-2.731164
605.886233	5.753858E-7	1.529909E-5	8.089386E-7	-2.688091
606.288281	5.872402E-7	1.108103E-5	7.432037E-7	-3.015240
606.690329	5.831923E-7	1.195381E-5	1.055387E-6	-2.949271
607.092377	6.010653E-7	7.236536E-6	9.349870E-7	3.082531
607.494425	5.895280E-7	1.442863E-5	6.608113E-7	-2.609776
607.896473	6.046583E-7	1.776935E-5	1.150700E-6	-2.970535
608.298521	5.987593E-7	2.145008E-5	1.111594E-6	3.127297
608.700569	6.174834E-7	1.897143E-5	9.755089E-7	3.027831
609.102616	6.366568E-7	6.107821E-6	8.990084E-7	2.721952
609.504664	6.282762E-7	1.810952E-5	1.020982E-6	-2.792704
609.906712	6.471132E-7	9.051341E-6	1.325420E-6	-2.960935
610.308760	6.433484E-7	1.517178E-5	1.227520E-6	2.916706
610.710808	6.588507E-7	1.952225E-5	1.197488E-6	3.088855
611.112856	6.751108E-7	9.466029E-6	1.283417E-6	-2.929450
611.514904	6.654526E-7	1.997140E-5	1.378179E-6	3.079925
611.916952	6.873865E-7	1.584821E-5	1.249788E-6	3.091636
612.319000	6.982968E-7	1.951416E-5	1.160097E-6	3.041153
612.721048	7.108397E-7	8.258435E-6	1.749384E-6	-3.058717
613.123096	7.150046E-7	1.697308E-5	1.607030E-6	2.919665
613.525144	7.453846E-7	7.635690E-6	1.471509E-6	3.070362
613.927192	7.604803E-7	9.598991E-6	1.220292E-6	2.791534
614.329240	7.724839E-7	1.021822E-5	1.624733E-6	-3.119770
614.731287	7.699244E-7	2.426634E-5	1.951422E-6	3.117008
615.133335	8.020235E-7	1.024644E-5	1.768210E-6	2.836757
615.535383	8.051808E-7	1.757037E-5	1.850151E-6	2.766589
615.937431	8.225889E-7	6.224611E-6	1.506006E-6	2.948303
616.339479	8.247946E-7	1.422798E-5	1.690598E-6	-3.135516
616.741527	8.212220E-7	2.005008E-5	2.250182E-6	2.990174
617.143575	8.467850E-7	2.023968E-5	2.219871E-6	2.769715
617.545623	8.485957E-7	2.090390E-5	1.998049E-6	2.986634
617.947671	8.721032E-7	1.668753E-5	2.383972E-6	3.118799
618.349719	8.737967E-7	1.274159E-5	1.731592E-6	-2.930125
618.751767	8.641710E-7	2.635917E-5	2.376217E-6	-2.882720
619.153815	8.914582E-7	2.166379E-5	2.389466E-6	-3.089293
619.555863	9.058838E-7	1.052391E-5	1.776672E-6	-3.085450
619.957911	9.069784E-7	2.309416E-5	2.433218E-6	3.068271
620.359959	9.239269E-7	1.365628E-5	2.631702E-6	2.862008
620.762006	9.424930E-7	1.542228E-5	2.034603E-6	-3.139012
621.164054	9.408584E-7	1.305909E-5	2.723070E-6	3.093529
621.566102	9.466727E-7	1.738638E-5	3.130339E-6	-3.115059
621.968150	9.498575E-7	1.238977E-5	2.611908E-6	3.118667
622.370198	9.679932E-7	1.000560E-5	2.497414E-6	3.028576
622.772246	9.509231E-7	2.071406E-5	2.769062E-6	-3.031378
623.174294	9.624619E-7	2.323868E-5	3.190012E-6	2.945483
623.576342	9.526501E-7	2.692415E-5	2.594905E-6	2.854884
623.978390	9.780704E-7	1.947336E-5	2.975603E-6	2.944338
624.380438	1.004726E-6	6.883896E-6	2.385343E-6	3.009781
624.782486	9.945817E-7	1.129793E-5	3.029927E-6	-3.016094
625.184534	9.989814E-7	1.156726E-5	3.486620E-6	2.844814
625.586582	9.884647E-7	1.550872E-5	2.022351E-6	3.042768
625.988630	1.012175E-6	8.584396E-6	2.522344E-6	3.049994
626.390678	1.007107E-6	1.601801E-5	3.269852E-6	2.872599
626.792725	1.002076E-6	1.056092E-5	2.546145E-6	3.065139
627.194773	9.897289E-7	1.893436E-5	2.766203E-6	3.026911
627.596821	1.009608E-6	1.036731E-5	2.370583E-6	-3.100213
627.998869	9.875507E-7	1.630334E-5	3.184957E-6	-3.120633
628.400917	9.896808E-7	1.126486E-5	3.427527E-6	-2.960993
628.802965	9.853639E-7	1.328790E-5	3.672043E-6	3.056149
629.205013	9.906617E-7	1.160427E-5	3.119858E-6	3.046371
629.607061	9.816665E-7	1.773129E-5	3.188866E-6	-2.990934
630.009109	9.764790E-7	1.007206E-5	3.363560E-6	3.113778
630.411157	9.710219E-7	1.347768E-5	2.966975E-6	3.126473
630.813205	9.544705E-7	1.282091E-5	3.074013E-6	-3.055035
631.215253	9.383079E-7	1.586022E-5	3.491139E-6	3.123918
631.617301	9.582400E-7	8.222179E-6	2.933394E-6	3.033040
632.019349	9.113674E-7	1.266637E-5	3.219471E-6	-3.046178
632.421396	9.124575E-7	8.527331E-6	3.320069E-6	-3.129768
632.823444	8.971926E-7	1.029803E-5	2.895280E-6	2.925652
633.225492	8.779804E-7	1.083365E-5	2.825524E-6	3.039111
633.627540	8.637094E-7	8.157204E-6	2.883484E-6	-2.937447
634.029588	8.505794E-7	7.839947E-6	3.077451E-6	3.102554
634.431636	8.203475E-7	1.203698E-5	3.312114E-6	2.948958
634.833684	8.117632E-7	9.934419E-6	2.342186E-6	-3.126417
635.235732	8.023623E-7	1.032654E-5	3.012639E-6	-3.091000
635.637780	7.830207E-7	8.074987E-6	2.267902E-6	-3.073963
636.039828	7.595602E-7	1.032221E-5	3.269867E-6	-3.043862
636.441876	7.435226E-7	1.251642E-5	2.765729E-6	3.089164
636.843924	7.286321E-7	6.881681E-6	2.592951E-6	-3.116143
637.245972	6.978923E-7	1.543685E-5	2.936013E-6	-2.954667
637.648020	6.867539E-7	1.361696E-5	2.746338E-6	-3.127335
638.050068	6.729139E-7	9.065854E-6	2.768712E-6	2.936936
638.452115	6.565841E-7	1.999408E-5	1.538684E-6	3.133462
638.854163	6.170864E-7	1.858351E-5	2.480741E-6	-3.027738
639.256211	6.115355E-7	6.581014E-6	2.115446E-6	3.128199
639.658259	5.937362E-7	4.957392E-6	2.151031E-6	-2.915557
640.060307	5.818703E-7	5.103550E-6	2.104999E-6	-3.072031
640.462355	5.436755E-7	8.018704E-6	1.896548E-6	3.065967
640.864403	5.379141E-7	9.167249E-6	1.763412E-6	3.141549
641.266451	5.218535E-7	9.632040E-6	1.767954E-6	-2.823197
641.668499	5.034072E-7	7.355558E-6	1.862562E-6	-3.072227
642.070547	4.743685E-7	8.111432E-6	1.833489E-6	-3.017178
642.472595	4.707512E-7	4.367885E-6	1.483361E-6	-2.991099
642.874643	4.393303E-7	1.252132E-5	2.042207E-6	-2.992248
643.276691	4.316573E-7	8.333283E-6	1.925383E-6	-3.026541
643.678739	4.225920E-7	7.327644E-6	1.386035E-6	-2.780668
644.080787	4.040519E-7	6.549646E-6	1.429979E-6	-2.929783
644.482834	3.939292E-7	1.141350E-5	1.487718E-6	-2.700869
644.884882	4.052823E-7	7.921134E-6	1.059728E-6	-3.094681
645.286930	3.835971E-7	5.796595E-6	1.319384E-6	-2.704263
645.688978	3.717728E-7	8.111258E-6	1.309415E-6	-2.977350
646.091026	3.504526E-7	1.250650E-5	1.210664E-6	-2.706371
646.493074	3.511320E-7	5.578244E-6	9.790595E-7	-3.099225
646.895122	3.530465E-7	6.175137E-6	1.238051E-6	-2.802095
647.297170	3.460419E-7	5.985963E-6	1.074249E-6	3.030171
647.699218	3.435606E-7	7.534002E-6	9.041910E-7	-2.735451
648.101266	3.560838E-7	5.561115E-6	8.464548E-7	2.966397
648.503314	3.604430E-7	2.661685E-6	7.775517E-7	-3.002581
648.905362	3.552423E-7	8.709705E-6	8.892928E-7	-2.675533
649.307410	3.616784E-7	1.518344E-5	1.051792E-6	-2.892079
649.709458	3.725607E-7	7.628370E-6	5.513061E-7	-2.895209
650.111505	3.750914E-7	1.329244E-5	8.349447E-7	-2.914830
650.513553	3.959519E-7	3.995603E-6	7.098448E-7	-2.728193
650.915601	4.057249E-7	1.114498E-5	1.000352E-6	-2.894848
651.317649	4.238357E-7	8.358645E-6	6.493447E-7	2.627997
651.719697	4.334184E-7	8.178500E-6	7.104603E-7	-2.586861
652.121745	4.578869E-7	1.091784E-5	7.793294E-7	-3.041211
652.523793	4.749421E-7	1.607459E-5	7.325803E-7	-2.979948
652.925841	5.070327E-7	7.825093E-6	6.771730E-7	3.139582
653.327889	5.269021E-7	7.142076E-6	6.423870E-7	-3.091489
653.729937	5.515072E-7	1.155365E-5	8.001352E-7	2.998198
654.131985	5.786820E-7	1.630063E-5	6.388489E-7	3.071223
654.534033	6.194705E-7	5.905714E-6	5.433178E-7	-3.135183
654.936081	6.475940E-7	1.060318E-5	6.120165E-7	3.129079
655.338129	6.930823E-7	7.082235E-6	5.601932E-7	3.017228
655.740177	7.061268E-7	1.406239E-5	8.335014E-7	-2.889932
656.142224	7.574391E-7	1.059917E-5	1.142664E-6	2.869330
656.544272	8.118086E-7	8.894183E-6	6.580193E-7	3.044619
656.946320	8.468764E-7	9.918655E-6	9.287564E-7	2.755295
657.348368	8.968220E-7	1.378171E-5	7.083204E-7	2.858891
657.750416	9.307800E-7	1.070178E-5	9.372351E-7	2.950671
658.152464	9.938788E-7	7.567115E-6	1.145662E-6	3.031235
658.554512	1.012039E-6	1.211166E-5	1.178382E-6	2.825464
658.956560	1.078408E-6	6.029770E-6	8.808997E-7	2.957774
659.358608	1.119644E-6	6.054812E-6	1.069037E-6	2.793558
659.760656	1.160790E-6	1.192632E-5	1.634420E-6	3.093707
660.162704	1.210070E-6	1.866639E-5	1.576553E-6	3.056181
660.564752	1.264485E-6	8.975891E-6	1.476826E-6	2.755521
660.966800	1.288789E-6	1.494066E-5	1.485269E-6	3.022508
661.368848	1.284383E-6	1.533067E-5	1.497019E-6	2.802448
661.770895	1.328795E-6	2.262894E-5	1.925828E-6	3.022441
662.172943	1.389332E-6	1.519066E-5	1.769742E-6	2.699675
662.574991	1.387388E-6	2.294528E-5	1.594981E-6	2.998560
662.977039	1.445444E-6	1.484557E-5	1.808369E-6	2.870091
663.379087	1.503690E-6	3.696928E-6	1.019909E-6	2.974575
663.781135	1.470672E-6	1.200348E-5	1.426149E-6	-3.015145
664.183183	1.493397E-6	1.563558E-5	1.970640E-6	2.777927
664.585231	1.512324E-6	1.318510E-5	1.835575E-6	2.808638
664.987279	1.525489E-6	9.561928E-6	1.611704E-6	2.761298
665.389327	1.512045E-6	1.039709E-5	1.532211E-6	3.080021
665.791375	1.524134E-6	1.885047E-5	1.685534E-6	3.083427
666.193423	1.565441E-6	1.180639E-5	2.035298E-6	2.825963
666.595471	1.529526E-6	1.486893E-5	1.656611E-6	2.769283
666.997519	1.547403E-6	8.376767E-6	1.709769E-6	3.052392
667.399567	1.545219E-6	1.529642E-5	1.306819E-6	3.125519
667.801614	1.548714E-6	1.185771E-5	1.550856E-6	-2.804926
668.203662	1.545540E-6	1.843227E-5	2.187403E-6	2.873588
668.605710	1.557398E-6	9.177333E-6	1.311327E-6	3.093941
669.007758	1.520264E-6	2.131395E-5	2.297059E-6	3.112405
669.409806	1.540349E-6	1.573970E-5	1.998201E-6	2.892292
669.811854	1.556849E-6	1.182779E-5	1.697262E-6	3.140445
670.213902	1.542046E-6	1.673714E-5	2.165890E-6	-2.926929
670.615950	1.526415E-6	2.236019E-5	2.003364E-6	2.996770
671.017998	1.513406E-6	1.938512E-5	2.572238E-6	-3.036255
671.420046	1.572779E-6	1.649183E-5	2.589111E-6	2.883782
671.822094	1.555590E-6	9.193289E-6	1.750409E-6	3.033414
672.224142	1.529810E-6	1.993425E-5	2.456526E-6	-3.024753
672.626190	1.524137E-6	1.392264E-5	2.533000E-6	-3.044604
673.028238	1.537285E-6	2.175610E-5	3.128448E-6	2.964313
673.430286	1.570761E-6	1.223264E-5	2.594396E-6	2.977058
673.832333	1.539218E-6	1.610652E-5	2.356319E-6	2.726900
674.234381	1.564268E-6	1.660554E-5	2.645459E-6	3.088169
674.636429	1.563534E-6	1.343491E-5	2.693282E-6	3.038538
675.038477	1.585129E-6	1.322656E-5	2.264245E-6	3.055519
675.440525	1.590803E-6	7.162639E-6	2.322294E-6	3.042290
675.842573	1.577786E-6	1.261239E-5	2.328217E-6	3.011453
676.244621	1.581082E-6	1.078482E-5	2.645658E-6	2.951836
676.646669	1.573707E-6	1.275778E-5	2.369715E-6	3.001294
677.048717	1.574537E-6	1.211326E-5	2.064918E-6	2.879897
677.450765	1.581133E-6	1.110331E-5	2.104926E-6	3.041219
677.852813	1.578430E-6	1.351653E-5	2.686472E-6	2.950836
678.254861	1.570742E-6	1.050022E-5	1.865656E-6	-2.950327
678.656909	1.548182E-6	2.221177E-5	2.692241E-6	-3.070290
679.058957	1.556316E-6	1.696983E-5	2.566567E-6	3.013155
679.461004	1.539105E-6	1.270182E-5	2.553767E-6	2.900692
679.863052	1.549846E-6	6.951345E-6	2.022608E-6	2.941399
680.265100	1.530116E-6	1.024382E-5	2.252467E-6	-3.113040
680.667148	1.529168E-6	1.108600E-5	2.513807E-6	-3.100314
681.069196	1.455786E-6	2.333127E-5	2.745834E-6	-3.037485
681.471244	1.487506E-6	1.058608E-5	1.917563E-6	3.013844
681.873292	1.476166E-6	1.112404E-5	2.399577E-6	-3.103807
682.275340	1.458906E-6	1.065167E-5	2.587953E-6	-3.100193
682.677388	1.434815E-6	1.759161E-5	2.342854E-6	-3.088605
683.079436	1.409374E-6	1.114066E-5	2.146356E-6	-2.856215
683.481484	1.401172E-6	1.438390E-5	2.562473E-6	3.122426
683.883532	1.375326E-6	1.499799E-5	1.972960E-6	-3.134879
684.285580	1.351085E-6	1.362629E-5	2.089462E-6	-2.935030
684.687628	1.314202E-6	3.184892E-5	2.038594E-6	-3.117637
685.089676	1.291335E-6	1.741860E-5	1.969294E-6	-3.054465
685.491723	1.277046E-6	1.322215E-5	2.186443E-6	-2.988330
685.893771	1.278831E-6	8.097151E-6	1.892354E-6	-2.908315
686.295819	1.245487E-6	9.623421E-6	2.001111E-6	-3.046645
686.697867	1.222195E-6	1.279752E-5	2.270059E-6	-3.053219
687.099915	1.204790E-6	1.861822E-5	2.275520E-6	-3.049496
687.501963	1.184538E-6	1.593683E-5	1.935353E-6	-2.975439
687.904011	1.162821E-6	6.684799E-6	1.627139E-6	-2.874604
688.306059	1.150871E-6	1.154527E-5	2.090281E-6	-2.885947
688.708107	1.122361E-6	1.349419E-5	2.158439E-6	3.081690
689.110155	1.099008E-6	1.604469E-5	1.806947E-6	-2.953749
689.512203	1.080826E-6	1.529164E-5	1.922786E-6	-3.033108
689.914251	1.067246E-6	1.206569E-5	1.567460E-6	-2.851455
690.316299	1.044867E-6	1.506895E-5	2.245729E-6	-2.945102
690.718347	1.020994E-6	1.524926E-5	2.012389E-6	3.102523
691.120395	1.015231E-6	1.354677E-5	1.960502E-6	3.101386
691.522442	1.014118E-6	9.856779E-6	1.471537E-6	3.131120
691.924490	9.806559E-7	1.023874E-5	1.705583E-6	-3.014122
692.326538	9.690275E-7	1.182185E-5	1.779983E-6	-3.073520
692.728586	9.467109E-7	1.307504E-5	1.666283E-6	3.076833
693.130634	9.387810E-7	1.166664E-5	1.658800E-6	3.021597
693.532682	9.270037E-7	1.429397E-5	1.801845E-6	2.949548
693.934730	9.194853E-7	1.313386E-5	1.300821E-6	-3.098312
694.336778	9.024998E-7	1.697669E-5	1.194078E-6	-2.916998
694.738826	9.032984E-7	1.443472E-5	1.428209E-6	3.135170
695.140874	8.932329E-7	1.049188E-5	1.407387E-6	2.973397
695.542922	8.767160E-7	1.189510E-5	1.109726E-6	-2.927396
695.944970	8.772996E-7	7.882825E-6	1.350488E-6	-2.955582
696.347018	8.677073E-7	1.006823E-5	1.379128E-6	-2.958024
696.749066	8.503808E-7	1.215615E-5	1.378400E-6	2.916475
697.151113	8.353124E-7	1.351891E-5	1.320623E-6	-3.139711
697.553161	8.372788E-7	1.350464E-5	1.293790E-6	3.070016
697.955209	8.310358E-7	1.120287E-5	1.224746E-6	3.092546
698.357257	8.241201E-7	9.439714E-6	1.136257E-6	3.006695
698.759305	8.274824E-7	1.006005E-5	1.148669E-6	-3.059827
699.161353	8.165788E-7	1.094253E-5	1.442912E-6	2.577910
699.563401	8.155205E-7	7.711506E-6	1.147221E-6	2.616057
699.965449	8.049379E-7	1.045805E-5	9.131540E-7	3.004642
700.367497	8.048585E-7	1.142902E-5	5.880834E-7	-2.741542
700.769545	7.789347E-7	1.775719E-5	1.049985E-6	-3.097126
701.171593	7.877012E-7	1.167609E-5	9.773796E-7	-3.091003
701.573641	7.682045E-7	1.585024E-5	8.820283E-7	2.972555
701.975689	7.626067E-7	8.335758E-6	7.372189E-7	2.901378
702.377737	7.597309E-7	1.424861E-5	1.262405E-6	3.131136
702.779785	7.708403E-7	8.015243E-6	8.842425E-7	-2.991803
703.181832	7.731364E-7	5.377435E-6	6.777257E-7	-2.851234
703.583880	7.471077E-7	7.651976E-6	7.864324E-7	2.741965
703.985928	7.628244E-7	1.025231E-5	9.578001E-7	2.958085
704.387976	7.707134E-7	7.271203E-6	9.411363E-7	-3.138623
704.790024	7.526557E-7	9.977294E-6	7.754570E-7	2.909584
705.192072	7.400000E-7	2.057333E-5	7.968246E-7	2.978672
705.594120	7.438039E-7	1.428362E-5	7.887651E-7	2.972826
705.996168	7.497087E-7	9.024543E-6	8.703588E-7	-2.676356
706.398216	7.431552E-7	1.262096E-5	1.224905E-6	-3.118408
706.800264	7.454829E-7	1.673238E-5	8.220902E-7	2.948913
707.202312	7.576286E-7	1.278810E-5	8.713988E-7	2.879314
707.604360	7.550091E-7	1.229822E-5	9.848454E-7	-3.069235
708.006408	7.596798E-7	1.875764E-5	9.857014E-7	2.392751
708.408456	7.535705E-7	9.870203E-6	6.794716E-7	2.783465
708.810504	7.798401E-7	8.405646E-6	7.389713E-7	2.993466
709.212551	7.926332E-7	9.442948E-6	7.938066E-7	2.680013
709.614599	7.984254E-7	8.780005E-6	8.524877E-7	2.757899
710.016647	7.823946E-7	1.747283E-5	8.682046E-7	2.590700
710.418695	7.922855E-7	1.534908E-5	5.190498E-7	-2.987778
710.820743	8.068633E-7	1.171164E-5	8.896478E-7	2.852134
711.222791	8.064838E-7	7.543844E-6	4.091817E-7	-3.067744
711.624839	8.155229E-7	1.205058E-5	8.937754E-7	-3.064828
712.026887	8.296635E-7	8.423292E-6	7.284770E-7	3.039298
712.428935	8.350702E-7	8.887269E-6	7.147601E-7	-2.613480
712.830983	8.291524E-7	1.575404E-5	6.903128E-7	2.848339
713.233031	8.534593E-7	1.714217E-5	8.911436E-7	3.003231
713.635079	8.543853E-7	1.062365E-5	8.026184E-7	-3.050754
714.037127	8.705920E-7	1.509019E-5	1.028388E-6	-3.024973
714.439175	8.681345E-7	1.329937E-5	4.898249E-7	-2.984666
714.841222	8.881026E-7	1.298027E-5	9.702330E-7	-2.847560
715.243270	9.124762E-7	8.911895E-6	9.016746E-7	2.824145
715.645318	8.894581E-7	1.485930E-5	7.454535E-7	2.743963
716.047366	9.319365E-7	5.871797E-6	7.391989E-7	3.012651
716.449414	9.326976E-7	1.140449E-5	1.025577E-6	-2.725997
716.851462	9.371058E-7	1.435750E-5	1.147623E-6	2.971790
717.253510	9.391455E-7	1.840395E-5	9.327556E-7	-2.935658
717.655558	9.602351E-7	1.172298E-5	1.161461E-6	-2.947302
718.057606	9.810113E-7	1.261012E-5	9.945985E-7	3.091342
718.459654	1.000611E-6	1.039248E-5	6.827465E-7	3.088233
718.861702	1.012099E-6	1.206467E-5	1.062343E-6	-2.907315
719.263750	9.985832E-7	2.792501E-5	1.308578E-6	-2.894874
719.665798	1.055382E-6	9.780608E-6	1.118876E-6	-2.967712
720.067846	1.041248E-6	8.275974E-6	1.047647E-6	2.961057
720.469894	1.060652E-6	1.091660E-5	1.114970E-6	3.009676
720.871941	1.076187E-6	1.333700E-5	1.038823E-6	-3.023273
721.273989	1.066378E-6	1.182488E-5	1.094481E-6	-2.939297
721.676037	1.089362E-6	1.712969E-5	1.337081E-6	-3.091290
722.078085	1.099309E-6	1.157776E-5	1.295166E-6	2.949686
722.480133	1.124286E-6	8.101329E-6	7.988343E-7	-3.060373
722.882181	1.119691E-6	7.731168E-6	1.135727E-6	3.140577
723.284229	1.122127E-6	1.391407E-5	1.360424E-6	-3.130096
723.686277	1.148208E-6	8.813325E-6	1.082807E-6	2.954029
724.088325	1.157550E-6	9.058797E-6	1.127546E-6	3.115023
724.490373	1.148521E-6	1.085691E-5	1.159684E-6	-3.074116
724.892421	1.166221E-6	8.166012E-6	1.134928E-6	2.984609
725.294469	1.158100E-6	1.191303E-5	1.150939E-6	3.094674
725.696517	1.170570E-6	7.420600E-6	1.078048E-6	-3.131303
726.098565	1.163822E-6	1.308853E-5	1.134425E-6	-2.864710
726.500612	1.183877E-6	9.973497E-6	1.412509E-6	-3.134807
726.902660	1.156695E-6	1.233927E-5	1.381100E-6	2.969889
727.304708	1.163671E-6	7.488301E-6	8.246197E-7	3.044015
727.706756	1.162311E-6	2.023059E-5	1.196398E-6	-3.099461
728.108804	1.152388E-6	1.567077E-5	1.381189E-6	-2.954393
728.510852	1.167358E-6	1.288660E-5	1.190912E-6	2.981016
728.912900	1.176481E-6	1.027881E-5	1.082330E-6	-3.065656
729.314948	1.180801E-6	1.185220E-5	1.049836E-6	2.989102
729.716996	1.156091E-6	1.574218E-5	1.297361E-6	2.943914
730.119044	1.159347E-6	2.045397E-5	8.754336E-7	2.985382
730.521092	1.169111E-6	1.219502E-5	1.288860E-6	2.967183
730.923140	1.148201E-6	3.219999E-5	1.133624E-6	-3.032963
731.325188	1.176755E-6	1.221752E-5	1.012590E-6	3.134536
731.727236	1.177823E-6	1.219765E-5	1.222822E-6	-2.977495
732.129284	1.193710E-6	7.843181E-6	1.022219E-6	-3.008565
732.531331	1.167973E-6	1.266956E-5	1.250364E-6	-3.024150
732.933379	1.182161E-6	8.069767E-6	1.124524E-6	3.113596
733.335427	1.160949E-6	1.930416E-5	1.610096E-6	-3.024671
733.737475	1.174205E-6	1.108007E-5	1.153248E-6	3.005320
734.139523	1.176756E-6	8.682632E-6	1.117317E-6	-2.936488
734.541571	1.180433E-6	1.013727E-5	1.297542E-6	-3.052115
734.943619	1.165349E-6	1.585083E-5	1.200996E-6	-2.977334
735.345667	1.168021E-6	8.723662E-6	1.111595E-6	3.001922
735.747715	1.128618E-6	2.302737E-5	1.151829E-6	3.122717
736.149763	1.160093E-6	1.235039E-5	1.272086E-6	-3.093425
736.551811	1.126291E-6	2.024042E-5	1.284172E-6	2.993546
736.953859	1.117870E-6	1.670383E-5	1.290932E-6	3.070123
737.355907	1.095669E-6	1.907364E-5	8.114570E-7	-2.947675
737.757955	1.113651E-6	1.651979E-5	1.359654E-6	2.890363
738.160003	1.109892E-6	7.344359E-6	8.802336E-7	2.905424
738.562050	1.094519E-6	1.298285E-5	1.045807E-6	2.856281
738.964098	1.093262E-6	9.351764E-6	7.346056E-7	2.711418
739.366146	1.092362E-6	8.739992E-6	8.982763E-7	2.977962
739.768194	1.071152E-6	9.629389E-6	5.942082E-7	-3.008881
740.170242	1.068571E-6	1.177500E-5	9.572768E-7	2.860687
740.572290	1.041781E-6	1.014985E-5	6.236591E-7	2.771414
740.974338	1.037253E-6	1.585308E-5	6.074104E-7	-2.835814
741.376386	1.039817E-6	1.063213E-5	9.983083E-7	-2.914864
741.778434	1.004424E-6	1.599014E-5	9.961231E-7	3.133508
742.180482	9.985138E-7	1.231682E-5	8.305889E-7	2.733483
742.582530	1.009392E-6	9.998115E-6	8.598294E-7	3.133477
742.984578	9.706935E-7	2.178245E-5	1.189021E-6	-3.137091
743.386626	9.742956E-7	9.342853E-6	8.661937E-7	2.852603
743.788674	9.462776E-7	1.579381E-5	9.997782E-7	2.735599
744.190721	9.493691E-7	1.213200E-5	7.225893E-7	-3.051847
744.592769	9.364987E-7	1.157890E-5	9.820519E-7	2.920485
744.994817	9.060068E-7	1.157312E-5	9.482727E-7	2.836500
745.396865	9.266196E-7	6.687184E-6	9.108607E-7	2.759846
745.798913	9.004485E-7	9.124165E-6	4.959423E-7	2.750118
746.200961	8.895666E-7	8.653407E-6	5.465854E-7	2.970837
746.603009	8.899179E-7	1.033968E-5	8.878503E-7	2.959704
747.005057	8.758538E-7	1.105282E-5	8.834703E-7	2.653330
747.407105	8.686852E-7	1.098543E-5	8.377723E-7	2.957524
747.809153	8.695287E-7	7.326715E-6	8.258290E-7	2.637997
748.211201	8.459686E-7	2.057199E-5	9.062743E-7	2.699800
748.613249	8.526631E-7	9.685585E-6	5.466049E-7	2.664870
749.015297	8.447244E-7	1.418019E-5	7.472283E-7	-3.119335
749.417345	8.237198E-7	1.018690E-5	8.455021E-7	2.981088
749.819393	8.465737E-7	8.269972E-6	6.070903E-7	2.535222
750.221440	8.309376E-7	7.533591E-6	6.700535E-7	3.068975
750.623488	8.337276E-7	1.312593E-5	6.821229E-7	3.006431
751.025536	8.226688E-7	1.184814E-5	7.222027E-7	2.659438
751.427584	8.116534E-7	1.254199E-5	4.820183E-7	2.955100
751.829632	8.134222E-7	1.037101E-5	5.151487E-7	2.881360
752.231680	8.034357E-7	1.835396E-5	5.970573E-7	-3.104776
752.633728	7.983819E-7	1.306802E-5	9.122208E-7	-3.127960
753.035776	7.942311E-7	1.298055E-5	7.606426E-7	2.722927
753.437824	7.917468E-7	1.128558E-5	7.611576E-7	2.708875
753.839872	7.773978E-7	1.465913E-5	5.890888E-7	-2.847078
754.241920	7.720956E-7	1.263435E-5	8.894876E-7	-3.140961
754.643968	7.610855E-7	1.406453E-5	6.240427E-7	2.877590
755.046016	7.833862E-7	7.048763E-6	5.513900E-7	2.908476
755.448064	7.619231E-7	1.117699E-5	8.367905E-7	-2.918051
755.850112	7.549327E-7	9.976140E-6	8.652323E-7	3.055857
756.252159	7.581636E-7	9.984762E-6	9.588811E-7	2.526288
756.654207	7.517713E-7	9.818533E-6	2.521018E-7	2.193250
757.056255	7.548625E-7	8.911400E-6	7.027058E-7	-2.998246
757.458303	7.398232E-7	1.067654E-5	6.789180E-7	2.787060
757.860351	7.440075E-7	1.131153E-5	6.650941E-7	2.584586
758.262399	7.350413E-7	7.299898E-6	3.934322E-7	2.954200
758.664447	7.379240E-7	1.193454E-5	7.343631E-7	3.084745
759.066495	7.348756E-7	8.833696E-6	5.242479E-7	2.803516
759.468543	7.277386E-7	7.601181E-6	5.092459E-7	2.874462
759.870591	7.224998E-7	1.203307E-5	5.560687E-7	2.788061
760.272639	7.384599E-7	7.522686E-6	4.489723E-7	3.067502
760.674687	7.191774E-7	1.086643E-5	5.583260E-7	-2.849375
761.076735	7.335176E-7	8.618634E-6	4.984709E-7	2.865994
761.478783	7.423427E-7	6.207592E-6	3.344763E-7	2.801554
761.880830	7.460297E-7	7.170796E-6	3.795949E-7	-2.882001
762.282878	7.390678E-7	9.700491E-6	4.192548E-7	2.857498
762.684926	7.338144E-7	6.705555E-6	1.063527E-7	2.858366
763.086974	7.295374E-7	1.110049E-5	4.023580E-7	-2.820640
763.489022	7.325328E-7	9.140296E-6	4.285743E-7	-3.127108
763.891070	7.333092E-7	1.239316E-5	4.254881E-7	-2.977625
764.293118	7.374836E-7	8.110099E-6	3.974226E-7	-2.733962
764.695166	7.401685E-7	7.134211E-6	5.694031E-7	-3.049701
765.097214	7.407661E-7	6.861830E-6	2.897886E-7	-3.009969
765.499262	7.300714E-7	9.529624E-6	4.228374E-7	-2.676504
765.901310	7.310684E-7	1.122268E-5	5.125798E-7	-2.792492
766.303358	7.184867E-7	1.279001E-5	5.981781E-7	3.080462
766.705406	7.318077E-7	8.154748E-6	5.226622E-7	2.858538
767.107454	7.335706E-7	1.093853E-5	4.237701E-7	2.972556
767.509502	7.273158E-7	1.022006E-5	3.604352E-7	2.739573
767.911549	7.412475E-7	8.380055E-6	4.075766E-7	-2.946699
768.313597	7.290696E-7	1.193039E-5	6.056158E-7	2.978704
768.715645	7.334947E-7	9.989744E-6	4.193510E-7	2.990547
769.117693	7.291350E-7	7.180694E-6	3.405176E-7	3.096227
769.519741	7.211406E-7	9.381220E-6	2.593732E-7	2.808930
769.921789	7.221063E-7	8.275844E-6	2.905898E-7	3.111378
770.323837	7.305445E-7	6.920542E-6	3.362912E-7	2.708072
770.725885	7.311444E-7	6.805735E-6	3.456862E-7	2.606999
771.127933	7.239940E-7	1.038815E-5	3.444275E-7	-2.822614
771.529981	7.383154E-7	1.081802E-5	5.479276E-7	2.651667
771.932029	7.281430E-7	6.699433E-6	4.029741E-7	2.484705
772.334077	7.419275E-7	7.686284E-6	2.780462E-7	2.437701
772.736125	7.312292E-7	1.162738E-5	1.609278E-7	-2.864482
773.138173	7.377733E-7	8.729359E-6	4.401662E-7	3.124458
773.540220	7.306343E-7	9.573550E-6	2.195941E-7	2.592345
773.942268	7.209809E-7	9.253098E-6	4.604674E-7	2.526067
774.344316	7.221542E-7	1.063275E-5	4.136123E-7	2.669979
774.746364	7.250929E-7	8.536244E-6	4.655805E-7	2.801889
775.148412	7.201362E-7	9.161822E-6	4.330260E-7	2.468958
775.550460	7.141014E-7	8.021418E-6	2.919467E-7	2.857548
775.952508	7.215953E-7	1.341772E-5	2.606523E-7	2.143460
776.354556	7.192717E-7	5.820064E-6	3.443166E-7	2.695477
776.756604	7.067078E-7	1.591169E-5	4.844414E-7	2.669198
777.158652	7.135151E-7	7.031754E-6	3.173985E-7	2.718187
777.560700	7.222992E-7	8.116652E-6	3.817205E-7	2.412889
777.962748	6.972800E-7	1.016267E-5	3.202167E-7	2.799794
778.364796	6.975537E-7	8.633136E-6	5.935956E-7	2.782810
778.766844	6.778693E-7	9.737696E-6	4.494391E-7	2.742492
779.168892	6.983333E-7	4.308751E-6	3.751345E-7	2.932931
779.570939	6.853995E-7	5.918507E-6	4.703259E-7	2.683418
779.972987	6.864265E-7	6.068128E-6	4.451638E-7	2.724611
780.375035	6.763306E-7	1.042866E-5	5.205008E-7	2.636672
780.777083	6.724126E-7	5.084487E-6	4.910013E-7	2.751390
781.179131	6.764790E-7	8.784447E-6	5.519721E-7	2.548676
781.581179	6.740676E-7	9.512648E-6	4.501129E-7	2.436742
781.983227	6.703087E-7	5.654840E-6	4.981797E-7	2.829229
782.385275	6.589821E-7	9.576295E-6	4.011158E-7	2.878050
782.787323	6.432184E-7	1.083236E-5	6.712249E-7	3.035829
783.189371	6.629999E-7	5.767263E-6	5.059016E-7	2.862174
783.591419	6.483120E-7	6.288785E-6	3.604286E-7	2.744032
783.993467	6.461443E-7	6.307936E-6	5.206469E-7	2.720689
784.395515	6.376727E-7	9.847839E-6	4.716172E-7	3.018324
784.797563	6.281529E-7	1.726908E-5	6.679469E-7	2.688514
785.199611	6.193663E-7	1.112759E-5	5.776315E-7	2.892418
785.601658	6.252318E-7	8.601067E-6	7.178392E-7	2.984801
786.003706	6.108310E-7	8.783923E-6	6.280912E-7	2.451282
786.405754	6.109996E-7	7.320426E-6	6.745029E-7	2.858785
786.807802	6.189521E-7	9.813156E-6	6.686157E-7	2.415013
787.209850	6.097522E-7	1.028571E-5	5.197584E-7	2.550320
787.611898	5.961150E-7	7.852784E-6	6.368211E-7	2.552652
788.013946	5.937401E-7	7.169488E-6	7.650298E-7	2.519673
788.415994	5.884164E-7	8.634981E-6	7.226825E-7	2.565597
788.818042	5.887609E-7	6.948320E-6	6.521513E-7	2.449952
789.220090	5.722916E-7	6.111530E-6	3.939425E-7	2.816233
789.622138	5.668558E-7	6.457586E-6	4.033540E-7	2.590978
790.024186	5.658560E-7	8.527010E-6	6.642930E-7	2.523534
790.426234	5.627327E-7	1.220426E-5	6.323127E-7	2.212778
790.828282	5.588096E-7	6.639547E-6	6.153011E-7	2.502810
791.230329	5.453926E-7	1.153911E-5	6.517085E-7	2.500025
791.632377	5.477504E-7	6.411469E-6	3.004833E-7	2.396626
792.034425	5.413505E-7	8.168522E-6	4.179976E-7	2.772995
792.436473	5.385526E-7	5.393563E-6	5.402500E-7	2.714118
792.838521	5.335038E-7	1.509584E-5	7.730521E-7	2.352523
793.240569	5.195340E-7	1.189083E-5	5.294575E-7	2.091234
793.642617	5.204500E-7	5.127787E-6	2.691215E-7	2.913279
794.044665	5.111359E-7	9.019961E-6	5.285342E-7	3.086891
794.446713	5.134971E-7	8.665979E-6	5.022011E-7	2.780974
794.848761	5.012684E-7	8.514312E-6	5.531323E-7	2.680983
795.250809	5.058727E-7	6.682624E-6	4.769907E-7	2.331277
795.652857	4.947208E-7	5.187400E-6	2.975462E-7	1.860097
796.054905	4.839895E-7	1.112055E-5	3.367838E-7	-2.931935
796.456953	4.793821E-7	7.597191E-6	6.697357E-7	3.048721
796.859001	4.794003E-7	4.773574E-6	2.955473E-7	2.463227
797.261048	4.641775E-7	4.682807E-6	2.942789E-7	-3.115654
797.663096	4.585785E-7	8.406634E-6	5.379245E-7	2.613520
798.065144	4.678855E-7	5.524344E-6	1.295793E-7	-1.988900
798.467192	4.562884E-7	3.226151E-6	4.927373E-7	2.943105
798.869240	4.376105E-7	6.677100E-6	2.559121E-7	2.709503
799.271288	4.361867E-7	9.396188E-6	3.950727E-7	2.876765
799.673336	4.251869E-7	8.910299E-6	3.213972E-7	2.903149
800.075384	4.314620E-7	5.271203E-6	3.901168E-7	-3.044150
800.477432	4.200023E-7	8.100887E-6	2.548538E-7	1.958428
800.879480	4.186853E-7	5.208052E-6	2.335954E-7	-3.071659
801.281528	4.068433E-7	6.824790E-6	2.532162E-7	2.882378
801.683576	4.063689E-7	4.644390E-6	1.961899E-7	3.051023
802.085624	4.109110E-7	2.189501E-6	1.233858E-7	-3.115402
802.487672	3.971062E-7	6.866921E-6	3.149656E-7	-2.941118
802.889720	3.922954E-7	4.628867E-6	1.597235E-7	-2.754437
803.291767	3.847198E-7	6.552534E-6	3.169248E-7	2.689796
803.693815	3.779460E-7	3.711310E-6	1.263782E-7	2.989795
804.095863	3.791389E-7	3.697893E-6	2.223884E-7	2.617240
804.497911	3.727867E-7	2.841597E-6	1.611448E-7	-2.796385
804.899959	3.644370E-7	4.644748E-6	2.024656E-7	-3.059863
805.302007	3.566051E-7	5.165783E-6	2.312108E-7	2.911879
805.704055	3.597222E-7	3.214243E-6	1.082937E-7	2.634099
806.106103	3.444365E-7	3.554195E-6	8.150894E-8	2.991129
806.508151	3.379232E-7	3.971452E-6	1.026939E-7	3.124590
806.910199	3.330583E-7	5.980146E-6	1.034444E-7	-2.871440
807.312247	3.279310E-7	6.017924E-6	1.236789E-7	2.392587
807.714295	3.258103E-7	4.902852E-6	4.722530E-8	-3.002679
808.116343	3.204919E-7	2.906533E-6	3.911647E-8	3.070058
808.518391	3.171837E-7	3.726088E-6	7.150710E-8	2.607487
808.920438	3.195194E-7	2.256879E-6	6.307381E-8	1.878442
809.322486	3.123602E-7	2.929507E-6	3.733234E-8	2.794515
809.724534	3.073618E-7	3.124023E-6	4.021206E-8	2.941894
810.126582	2.954442E-7	4.794046E-6	9.375855E-9	2.458766
810.528630	2.926693E-7	7.097493E-6	2.661586E-8	-2.843558
810.930678	2.954785E-7	5.338832E-6	3.334627E-8	1.585199
811.332726	2.877662E-7	4.744188E-6	1.498680E-8	1.972973
811.734774	2.829749E-7	4.123862E-6	7.197940E-9	1.056212
812.136822	2.805385E-7	5.357879E-6	1.951336E-8	1.185339
812.538870	2.795512E-7	3.976706E-6	7.939664E-9	-0.321142
812.940918	2.755727E-7	3.378103E-6	3.590792E-8	-0.367484
813.342966	2.668767E-7	5.795635E-6	2.327595E-8	0.332224
813.745014	2.682498E-7	4.110817E-6	2.193634E-8	0.611919
814.147062	2.673737E-7	5.544609E-6	5.119126E-8	-0.447009
814.549110	2.629047E-7	6.121100E-6	3.868534E-8	1.211464
814.951157	2.545413E-7	6.193750E-6	6.789523E-8	-2.076137
815.353205	2.595618E-7	3.049819E-6	5.635152E-8	-2.567517
815.755253	2.501167E-7	6.012532E-6	2.088407E-8	2.356660
816.157301	2.495469E-7	3.052333E-6	4.565602E-8	1.994078
816.559349	2.471243E-7	2.648846E-6	4.520592E-8	-2.430509
816.961397	2.414999E-7	4.685768E-6	4.973537E-8	-2.947467
817.363445	2.364781E-7	4.865893E-6	1.146560E-7	-2.416881
817.765493	2.455631E-7	2.475381E-6	9.202217E-8	3.045630
818.167541	2.420839E-7	4.350450E-6	1.641658E-8	0.687623
818.569589	2.404867E-7	2.969386E-6	9.965490E-8	-2.989174
818.971637	2.350545E-7	3.266002E-6	7.003207E-8	-2.956979
819.373685	2.367938E-7	3.069970E-6	1.115988E-7	2.511237
819.775733	2.359698E-7	4.575732E-6	1.014023E-7	3.004961
820.177781	2.378570E-7	3.244086E-6	1.773740E-7	-3.055440
820.579829	2.360790E-7	4.067864E-6	1.232844E-7	2.718557
820.981876	2.337366E-7	3.117996E-6	5.064898E-8	2.535126
821.383924	2.328918E-7	4.961803E-6	1.259033E-7	-2.818794
821.785972	2.302789E-7	4.405021E-6	1.650604E-7	2.755632
822.188020	2.287820E-7	5.501350E-6	1.419062E-7	2.453474
822.590068	2.320834E-7	5.294725E-6	2.284727E-7	-2.991629
822.992116	2.283077E-7	4.892636E-6	2.320464E-7	2.053325
823.394164	2.347055E-7	2.938841E-6	4.105505E-8	0.328526
823.796212	2.307006E-7	4.413494E-6	1.243972E-7	2.807053
824.198260	2.307236E-7	4.723857E-6	7.398966E-8	2.474676
824.600308	2.254729E-7	3.632096E-6	1.634980E-7	2.769052
825.002356	2.273685E-7	3.691103E-6	1.127279E-7	-3.014456
825.404404	2.288945E-7	3.591509E-6	4.269535E-8	3.004775
